experiment;timestamp;timestamp_ms;signal_eeg_01;signal_eeg_02;signal_eeg_t3;signal_eeg_t4;resistance_eeg_01;resistance_eeg_02;resistance_eeg_t3;resistance_eeg_t4;label
2,02402E+14;20240204_04:21:28.082;1707060088082;-0,000264153;-0,000176796;-0,000325986;-0,000114441;;;;;RELAX
2,02402E+14;20240204_04:21:28.105;1707060088105;-0,000225269;-0,000146324;-0,00027164;-8,78281;;;;;RELAX
2,02402E+14;20240204_04:21:28.121;1707060088121;-0,000203274;-0,000141736;-0,000248813;-7,81073;;;;;RELAX
2,02402E+14;20240204_04:21:28.139;1707060088139;-0,000141989;-0,000103419;-0,000184964;-3,25618;;;;;RELAX
2,02402E+14;20240204_04:21:28.155;1707060088155;-0,91686;-7,32433;-0,000147386;-0,756645;;;;;RELAX
2,02402E+14;20240204_04:21:28.170;1707060088170;-8,49506;-6,30133;-0,000128139;-0,236501;;;;;RELAX
2,02402E+14;20240204_04:21:28.187;1707060088187;-7,42579;-0,74181;-0,000119014;-0,012574;;;;;RELAX
2,02402E+14;20240204_04:21:28.206;1707060088206;-5,38667;-4,84802;-0,00010487;1,76847;;;;;RELAX
2,02402E+14;20240204_04:21:28.221;1707060088221;-3,26039;-3,87389;-0,65746;2,24197;;;;;RELAX
2,02402E+14;20240204_04:21:28.239;1707060088239;-0,27219;-3,36871;-6,21295;2,77328;;;;;RELAX
2,02402E+14;20240204_04:21:28.256;1707060088256;-0,069705;-1,55934;-2,87148;3,89689;;;;;RELAX
2,02402E+14;20240204_04:21:28.271;1707060088271;-1,02532;-1,09692;-2,34066;4,31248;;;;;RELAX
2,02402E+14;20240204_04:21:28.289;1707060088289;-0,586362;-0,608658;-1,85406;4,90597;;;;;RELAX
2,02402E+14;20240204_04:21:28.305;1707060088305;-0,873169;-0,166948;-1,43818;5,72364;;;;;RELAX
2,02402E+14;20240204_04:21:28.330;1707060088330;-1,19947;-0,466401;-1,26379;5,04715;;;;;RELAX
2,02402E+14;20240204_04:21:28.338;1707060088338;0,331588;-0,0907853;-0,906677;5,13134;;;;;RELAX
2,02402E+14;20240204_04:21:28.347;1707060088347;0,11702;-0,301983;1,53298;3,61801;;;;;RELAX
2,02402E+14;20240204_04:21:28.364;1707060088364;1,36741;0,626312;2,80729;0,03944;;;;;RELAX
2,02402E+14;20240204_04:21:28.379;1707060088379;1,74222;0,351526;0,15086;4,52936;;;;;RELAX
2,02402E+14;20240204_04:21:28.389;1707060088389;1,28999;0,038012;1,53057;4,81105;;;;;RELAX
2,02402E+14;20240204_04:21:28.404;1707060088404;0,113112;-0,111128;1,80675;0,46974;;;;;RELAX
2,02402E+14;20240204_04:21:28.412;1707060088412;0,113112;-0,111128;1,80675;0,46974;;;;;RELAX
2,02402E+14;20240204_04:21:28.421;1707060088421;0,0098139;-0,745432;2,13616;3,72519;;;;;RELAX
2,02402E+14;20240204_04:21:28.430;1707060088430;0,0098139;-0,745432;2,13616;3,72519;;;;;RELAX
2,02402E+14;20240204_04:21:28.439;1707060088439;0,358097;0,490147;1,74117;4,71814;;;;;RELAX
2,02402E+14;20240204_04:21:28.446;1707060088446;0,358097;0,490147;1,74117;4,71814;;;;;RELAX
2,02402E+14;20240204_04:21:28.455;1707060088455;1,55196;0,721543;2,76037;0,41199;;;;;RELAX
2,02402E+14;20240204_04:21:28.464;1707060088464;2,87651;1,72748;3,34376;5,28171;;;;;RELAX
2,02402E+14;20240204_04:21:28.471;1707060088471;2,87651;1,72748;3,34376;5,28171;;;;;RELAX
2,02402E+14;20240204_04:21:28.480;1707060088480;2,41854;2,21185;3,34376;5,28171;;;;;RELAX
2,02402E+14;20240204_04:21:28.487;1707060088487;2,04533;0,24266;2,24946;6,01253;;;;;RELAX
2,02402E+14;20240204_04:21:28.497;1707060088497;0,288452;0,675695;1,47263;5,12005;;;;;RELAX
2,02402E+14;20240204_04:21:28.506;1707060088506;0,288452;0,675695;1,47263;5,12005;;;;;RELAX
2,02402E+14;20240204_04:21:28.521;1707060088521;0,698963;0,898319;2,74332;0,45894;;;;;RELAX
2,02402E+14;20240204_04:21:28.529;1707060088529;0,769117;0,629077;2,47412;4,35014;;;;;RELAX
2,02402E+14;20240204_04:21:28.538;1707060088538;0,769117;0,629077;2,47412;4,35014;;;;;RELAX
2,02402E+14;20240204_04:21:28.547;1707060088547;1,42233;1,21033;2,33721;4,44174;;;;;RELAX
2,02402E+14;20240204_04:21:28.555;1707060088555;0,815403;1,65227;0,26474;5,15678;;;;;RELAX
2,02402E+14;20240204_04:21:28.564;1707060088564;0,536578;1,74693;2,17543;5,30914;;;;;RELAX
2,02402E+14;20240204_04:21:28.572;1707060088572;1,68643;2,43034;0,31189;0,52739;;;;;RELAX
2,02402E+14;20240204_04:21:28.579;1707060088579;1,68643;2,43034;0,31189;0,52739;;;;;RELAX
2,02402E+14;20240204_04:21:28.588;1707060088588;2,04911;3,17436;2,94766;6,01986;;;;;RELAX
2,02402E+14;20240204_04:21:28.597;1707060088597;1,75821;2,67091;2,94766;5,55165;;;;;RELAX
2,02402E+14;20240204_04:21:28.605;1707060088605;1,57617;2,20479;3,08829;4,93388;;;;;RELAX
2,02402E+14;20240204_04:21:28.613;1707060088613;1,57617;2,20479;3,08829;4,93388;;;;;RELAX
2,02402E+14;20240204_04:21:28.621;1707060088621;2,00737;2,41381;3,09436;5,06668;;;;;RELAX
2,02402E+14;20240204_04:21:28.630;1707060088630;0,26921;3,49167;3,34748;5,39825;;;;;RELAX
2,02402E+14;20240204_04:21:28.638;1707060088638;0,26921;3,49167;3,34748;5,39825;;;;;RELAX
2,02402E+14;20240204_04:21:28.647;1707060088647;0,29437;0,03444;2,51874;5,52632;;;;;RELAX
2,02402E+14;20240204_04:21:28.654;1707060088654;0,29437;0,03444;2,51874;5,52632;;;;;RELAX
2,02402E+14;20240204_04:21:28.664;1707060088664;3,19237;3,42121;3,56912;5,67443;;;;;RELAX
2,02402E+14;20240204_04:21:28.671;1707060088671;3,19237;3,42121;3,56912;5,67443;;;;;RELAX
2,02402E+14;20240204_04:21:28.680;1707060088680;1,71419;2,56548;2,84997;5,23473;;;;;RELAX
2,02402E+14;20240204_04:21:28.688;1707060088688;0,242232;2,08713;1,38667;4,82672;;;;;RELAX
2,02402E+14;20240204_04:21:28.697;1707060088697;1,81479;2,43097;2,49051;4,94226;;;;;RELAX
2,02402E+14;20240204_04:21:28.706;1707060088706;1,38472;2,30275;2,76263;0,45422;;;;;RELAX
2,02402E+14;20240204_04:21:28.713;1707060088713;0,593538;1,74848;1,89174;4,23502;;;;;RELAX
2,02402E+14;20240204_04:21:28.722;1707060088722;0,0924432;0,814434;0,538242;3,72801;;;;;RELAX
2,02402E+14;20240204_04:21:28.729;1707060088729;0,0924432;0,814434;0,538242;3,72801;;;;;RELAX
2,02402E+14;20240204_04:21:28.739;1707060088739;0,113531;1,08817;0,572724;4,07891;;;;;RELAX
2,02402E+14;20240204_04:21:28.746;1707060088746;0,113531;1,08817;0,572724;4,07891;;;;;RELAX
2,02402E+14;20240204_04:21:28.756;1707060088756;-0,774604;0,217703;0,147262;3,38714;;;;;RELAX
2,02402E+14;20240204_04:21:28.764;1707060088764;-0,347643;0,0442805;0,0590829;3,01573;;;;;RELAX
2,02402E+14;20240204_04:21:28.771;1707060088771;-0,347643;0,0442805;0,0590829;3,01573;;;;;RELAX
2,02402E+14;20240204_04:21:28.781;1707060088781;-0,328117;0,617416;0,208929;3,62983;;;;;RELAX
2,02402E+14;20240204_04:21:28.788;1707060088788;-0,878544;0,617416;0,208929;3,62983;;;;;RELAX
2,02402E+14;20240204_04:21:28.798;1707060088798;-0,221424;0,793248;-0,103916;0,37663;;;;;RELAX
2,02402E+14;20240204_04:21:28.814;1707060088814;0,10428;0,0141227;-0,014563;3,00619;;;;;RELAX
2,02402E+14;20240204_04:21:28.822;1707060088822;0,10428;0,0141227;-0,014563;3,00619;;;;;RELAX
2,02402E+14;20240204_04:21:28.830;1707060088830;0,668543;0,042797;0,269332;3,04542;;;;;RELAX
2,02402E+14;20240204_04:21:28.839;1707060088839;-0,670566;-0,0463989;-0,896917;3,07313;;;;;RELAX
2,02402E+14;20240204_04:21:28.846;1707060088846;-0,670566;-0,0463989;-0,896917;3,07313;;;;;RELAX
2,02402E+14;20240204_04:21:28.855;1707060088855;-1,52216;-1,16327;-1,19839;2,42992;;;;;RELAX
2,02402E+14;20240204_04:21:28.864;1707060088864;-1,52216;-1,16327;-1,32407;2,42992;;;;;RELAX
2,02402E+14;20240204_04:21:28.872;1707060088872;-1,23323;-0,896541;-0,975639;2,16006;;;;;RELAX
2,02402E+14;20240204_04:21:28.880;1707060088880;-1,23323;-0,896541;-0,975639;2,16006;;;;;RELAX
2,02402E+14;20240204_04:21:28.889;1707060088889;-0,483227;0,016947;-0,287689;2,99077;;;;;RELAX
2,02402E+14;20240204_04:21:28.897;1707060088897;-0,736048;1,09747;0,0936015;3,70358;;;;;RELAX
2,02402E+14;20240204_04:21:28.905;1707060088905;-1,60135;0,431932;-0,546072;3,21519;;;;;RELAX
2,02402E+14;20240204_04:21:28.913;1707060088913;-1,60135;-0,10882;-0,13453;1,89702;;;;;RELAX
2,02402E+14;20240204_04:21:28.921;1707060088921;-0,19845;-1,52836;-1,22318;1,97919;;;;;RELAX
2,02402E+14;20240204_04:21:28.930;1707060088930;-0,795767;-0,524635;-0,957424;2,48765;;;;;RELAX
2,02402E+14;20240204_04:21:28.938;1707060088938;-0,795767;-0,524635;-0,957424;2,48765;;;;;RELAX
2,02402E+14;20240204_04:21:28.948;1707060088948;-0,781658;-0,0223979;-0,171185;2,62728;;;;;RELAX
2,02402E+14;20240204_04:21:28.955;1707060088955;-0,781658;-0,0223979;-0,171185;2,62728;;;;;RELAX
2,02402E+14;20240204_04:21:28.963;1707060088963;-1,10076;-1,52034;-1,37856;2,10195;;;;;RELAX
2,02402E+14;20240204_04:21:28.971;1707060088971;-1,10076;-1,52034;-1,37856;2,10195;;;;;RELAX
2,02402E+14;20240204_04:21:28.980;1707060088980;-0,0155286;-0,985218;-0,755328;2,19073;;;;;RELAX
2,02402E+14;20240204_04:21:28.989;1707060088989;0,716239;-0,773799;-0,172122;2,25273;;;;;RELAX
2,02402E+14;20240204_04:21:28.997;1707060088997;0,716239;-0,773799;-0,172122;2,25273;;;;;RELAX
2,02402E+14;20240204_04:21:29.006;1707060089006;1,12199;-0,546465;0,186714;3,78321;;;;;RELAX
2,02402E+14;20240204_04:21:29.023;1707060089023;1,34499;-0,227735;-0,520292;4,06447;;;;;RELAX
2,02402E+14;20240204_04:21:29.030;1707060089030;1,34499;-0,227735;-0,520292;4,06447;;;;;RELAX
2,02402E+14;20240204_04:21:29.039;1707060089039;0,335546;-1,47126;-0,11507;3,30608;;;;;RELAX
2,02402E+14;20240204_04:21:29.047;1707060089047;0,612026;-1,68612;-0,865314;3,30608;;;;;RELAX
2,02402E+14;20240204_04:21:29.055;1707060089055;1,69186;-1,15939;-0,186411;3,69114;;;;;RELAX
2,02402E+14;20240204_04:21:29.063;1707060089063;2,78989;-0,433547;0,438929;3,86844;;;;;RELAX
2,02402E+14;20240204_04:21:29.072;1707060089072;2,75354;0,420503;0,723152;4,65569;;;;;RELAX
2,02402E+14;20240204_04:21:29.081;1707060089081;3,23093;1,67883;0,0680454;5,22092;;;;;RELAX
2,02402E+14;20240204_04:21:29.088;1707060089088;3,23093;1,67883;0,0680454;5,22092;;;;;RELAX
2,02402E+14;20240204_04:21:29.098;1707060089098;2,33239;1,67194;-0,268185;5,33007;;;;;RELAX
2,02402E+14;20240204_04:21:29.106;1707060089106;2,33239;1,67194;-0,268185;5,33007;;;;;RELAX
2,02402E+14;20240204_04:21:29.113;1707060089113;0,671768;0,523503;-1,03204;4,56708;;;;;RELAX
2,02402E+14;20240204_04:21:29.122;1707060089122;0,671768;0,523503;-1,03204;4,56708;;;;;RELAX
2,02402E+14;20240204_04:21:29.131;1707060089131;0,030071;-0,711146;-1,76802;3,43042;;;;;RELAX
2,02402E+14;20240204_04:21:29.140;1707060089140;1,49784;-0,285965;-1,20458;3,30317;;;;;RELAX
2,02402E+14;20240204_04:21:29.148;1707060089148;0,11791;-0,568242;-0,771436;3,15266;;;;;RELAX
2,02402E+14;20240204_04:21:29.156;1707060089156;0,646395;0,0508811;-0,791455;3,06193;;;;;RELAX
2,02402E+14;20240204_04:21:29.163;1707060089163;0,646395;0,0508811;-0,791455;3,06193;;;;;RELAX
2,02402E+14;20240204_04:21:29.172;1707060089172;2,74046;0,706247;-0,796238;3,52388;;;;;RELAX
2,02402E+14;20240204_04:21:29.180;1707060089180;2,74046;0,706247;-0,796238;3,52388;;;;;RELAX
2,02402E+14;20240204_04:21:29.190;1707060089190;2,09814;0,739182;-1,25065;3,21674;;;;;RELAX
2,02402E+14;20240204_04:21:29.197;1707060089197;2,09814;0,739182;-1,25065;3,21674;;;;;RELAX
2,02402E+14;20240204_04:21:29.205;1707060089205;0,254988;0,0882418;-1,15937;2,40035;;;;;RELAX
2,02402E+14;20240204_04:21:29.215;1707060089215;-1,56801;-0,868723;-1,55024;0,15495;;;;;RELAX
2,02402E+14;20240204_04:21:29.222;1707060089222;-1,56801;-0,868723;-1,55024;0,15495;;;;;RELAX
2,02402E+14;20240204_04:21:29.231;1707060089231;-1,22027;-0,231067;-1,84287;1,45187;;;;;RELAX
2,02402E+14;20240204_04:21:29.238;1707060089238;-1,22027;-0,231067;-1,84287;1,45187;;;;;RELAX
2,02402E+14;20240204_04:21:29.248;1707060089248;-0,138654;-0,156112;0,0376817;1,96281;;;;;RELAX
2,02402E+14;20240204_04:21:29.256;1707060089256;-0,138654;-0,156112;0,0376817;1,96281;;;;;RELAX
2,02402E+14;20240204_04:21:29.263;1707060089263;0,237643;0,224137;-1,67289;2,13881;;;;;RELAX
2,02402E+14;20240204_04:21:29.272;1707060089272;0,237643;0,614253;-1,67289;2,13881;;;;;RELAX
2,02402E+14;20240204_04:21:29.281;1707060089281;-0,913667;0,126648;-1,88386;1,73312;;;;;RELAX
2,02402E+14;20240204_04:21:29.290;1707060089290;-0,748193;0,298395;-0,961764;2,41133;;;;;RELAX
2,02402E+14;20240204_04:21:29.298;1707060089298;-0,748193;0,298395;-0,961764;2,41133;;;;;RELAX
2,02402E+14;20240204_04:21:29.306;1707060089306;-0,748193;0,298395;-0,961764;2,41133;;;;;RELAX
2,02402E+14;20240204_04:21:29.315;1707060089315;-1,71014;0,0792661;-0,24009;1,94524;;;;;RELAX
2,02402E+14;20240204_04:21:29.323;1707060089323;-1,51226;-0,100435;-1,01826;1,72113;;;;;RELAX
2,02402E+14;20240204_04:21:29.330;1707060089330;-1,51226;-0,100435;-1,01826;1,72113;;;;;RELAX
2,02402E+14;20240204_04:21:29.340;1707060089340;-1,37329;-0,109531;-0,495733;1,87778;;;;;RELAX
2,02402E+14;20240204_04:21:29.347;1707060089347;-1,37329;-0,109531;-0,495733;1,87778;;;;;RELAX
2,02402E+14;20240204_04:21:29.356;1707060089356;-1,15818;-0,011463;-0,780331;1,61046;;;;;RELAX
2,02402E+14;20240204_04:21:29.365;1707060089365;-0,503162;-0,594344;-2,33133;0,941059;;;;;RELAX
2,02402E+14;20240204_04:21:29.372;1707060089372;-0,503162;-0,594344;-2,33133;0,941059;;;;;RELAX
2,02402E+14;20240204_04:21:29.381;1707060089381;-0,046166;-0,840375;-1,34287;0,782137;;;;;RELAX
2,02402E+14;20240204_04:21:29.389;1707060089389;-0,046166;-0,840375;-1,34287;0,782137;;;;;RELAX
2,02402E+14;20240204_04:21:29.398;1707060089398;-0,968849;-0,0628657;-0,536778;0,778064;;;;;RELAX
2,02402E+14;20240204_04:21:29.405;1707060089405;-0,968849;-0,0628657;-0,536778;0,778064;;;;;RELAX
2,02402E+14;20240204_04:21:29.414;1707060089414;-1,66312;-0,904088;-0,18699;0,375937;;;;;RELAX
2,02402E+14;20240204_04:21:29.422;1707060089422;-1,66312;-0,904088;-0,18699;0,375937;;;;;RELAX
2,02402E+14;20240204_04:21:29.431;1707060089431;-0,21558;-0,774529;-0,18079;0,735976;;;;;RELAX
2,02402E+14;20240204_04:21:29.439;1707060089439;-0,21558;-0,807585;-0,867925;0,196997;;;;;RELAX
2,02402E+14;20240204_04:21:29.447;1707060089447;-0,519359;-0,711815;-0,411833;-0,0447837;;;;;RELAX
2,02402E+14;20240204_04:21:29.457;1707060089457;-0,00406328;-0,00950064;-0,035952;0,241675;;;;;RELAX
2,02402E+14;20240204_04:21:29.472;1707060089472;-0,0262079;-0,0967015;0,364169;0,062553;;;;;RELAX
2,02402E+14;20240204_04:21:29.480;1707060089480;-0,0262079;-0,0967015;0,364169;0,062553;;;;;RELAX
2,02402E+14;20240204_04:21:29.489;1707060089489;-0,426122;-0,646753;-0,332274;-0,0393752;;;;;RELAX
2,02402E+14;20240204_04:21:29.498;1707060089498;-0,405922;-0,646753;-0,294552;-0,146267;;;;;RELAX
2,02402E+14;20240204_04:21:29.505;1707060089505;-0,616118;-0,859666;-0,386225;0,158841;;;;;RELAX
2,02402E+14;20240204_04:21:29.514;1707060089514;-0,667135;-0,360621;-0,871632;0,559182;;;;;RELAX
2,02402E+14;20240204_04:21:29.523;1707060089523;-0,667135;-0,360621;-0,871632;0,559182;;;;;RELAX
2,02402E+14;20240204_04:21:29.531;1707060089531;-0,557793;-0,0117463;-0,010531;0,840735;;;;;RELAX
2,02402E+14;20240204_04:21:29.539;1707060089539;-0,557793;-0,0117463;-0,010531;0,639241;;;;;RELAX
2,02402E+14;20240204_04:21:29.548;1707060089548;0,137122;-0,345938;0,724955;0,0376887;;;;;RELAX
2,02402E+14;20240204_04:21:29.557;1707060089557;0,137122;-0,345938;0,724955;0,0376887;;;;;RELAX
2,02402E+14;20240204_04:21:29.564;1707060089564;-0,947691;-0,643905;-0,474023;-0,0234027;;;;;RELAX
2,02402E+14;20240204_04:21:29.573;1707060089573;-0,947691;-0,643905;-0,474023;-0,0234027;;;;;RELAX
2,02402E+14;20240204_04:21:29.582;1707060089582;-1,03229;-0,053209;-0,244045;0,019767;;;;;RELAX
2,02402E+14;20240204_04:21:29.590;1707060089590;-1,04875;-0,356189;-0,544281;0,240681;;;;;RELAX
2,02402E+14;20240204_04:21:29.597;1707060089597;-1,04875;-0,356189;-0,544281;0,240681;;;;;RELAX
2,02402E+14;20240204_04:21:29.606;1707060089606;-2,15409;-1,02055;-1,02408;-0,170405;;;;;RELAX
2,02402E+14;20240204_04:21:29.614;1707060089614;-2,15409;-1,02055;-1,02408;-0,170405;;;;;RELAX
2,02402E+14;20240204_04:21:29.622;1707060089622;-0,20435;-0,645039;-0,838346;0,0921647;;;;;RELAX
2,02402E+14;20240204_04:21:29.632;1707060089632;-2,09918;-0,484639;0,313059;0,023068;;;;;RELAX
2,02402E+14;20240204_04:21:29.640;1707060089640;-1,11638;-0,813245;0,0100374;-0,233807;;;;;RELAX
2,02402E+14;20240204_04:21:29.650;1707060089650;-1,38845;-1,11824;-0,279717;0,234858;;;;;RELAX
2,02402E+14;20240204_04:21:29.656;1707060089656;-1,75881;-1,11824;-0,279717;0,234858;;;;;RELAX
2,02402E+14;20240204_04:21:29.664;1707060089664;-1,63225;-1,16392;-0,0910353;0,315641;;;;;RELAX
2,02402E+14;20240204_04:21:29.673;1707060089673;-0,14164;-1,24707;-0,410563;0,013299;;;;;RELAX
2,02402E+14;20240204_04:21:29.681;1707060089681;0,00496647;0,113325;-0,0024509;0,981172;;;;;RELAX
2,02402E+14;20240204_04:21:29.689;1707060089689;0,00496647;0,113325;-0,0024509;0,981172;;;;;RELAX
2,02402E+14;20240204_04:21:29.698;1707060089698;-1,29427;1,35069;-0,860744;1,92272;;;;;RELAX
2,02402E+14;20240204_04:21:29.707;1707060089707;-1,15573;0,043258;-0,0762748;1,83475;;;;;RELAX
2,02402E+14;20240204_04:21:29.714;1707060089714;-1,15573;0,043258;-0,0762748;1,83475;;;;;RELAX
2,02402E+14;20240204_04:21:29.723;1707060089723;-1,51967;-0,165583;0,921291;1,65107;;;;;RELAX
2,02402E+14;20240204_04:21:29.731;1707060089731;-2,16686;-0,421324;0,388176;1,51486;;;;;RELAX
2,02402E+14;20240204_04:21:29.740;1707060089740;-0,01434;-0,155521;0,118154;1,40872;;;;;RELAX
2,02402E+14;20240204_04:21:29.747;1707060089747;-0,01434;-0,155521;0,118154;1,40872;;;;;RELAX
2,02402E+14;20240204_04:21:29.756;1707060089756;-1,01546;-0,777436;0,454804;0,829555;;;;;RELAX
2,02402E+14;20240204_04:21:29.764;1707060089764;-1,01546;-0,777436;0,454804;0,829555;;;;;RELAX
2,02402E+14;20240204_04:21:29.773;1707060089773;-0,199088;-0,0471799;0,108667;1,09247;;;;;RELAX
2,02402E+14;20240204_04:21:29.782;1707060089782;-0,199088;-0,0471799;0,108667;1,09247;;;;;RELAX
2,02402E+14;20240204_04:21:29.790;1707060089790;-0,192214;0,950403;-0,685516;0,20307;;;;;RELAX
2,02402E+14;20240204_04:21:29.799;1707060089799;-1,31883;0,204689;-0,868738;1,91405;;;;;RELAX
2,02402E+14;20240204_04:21:29.806;1707060089806;-0,925583;0,204689;-0,149657;1,67568;;;;;RELAX
2,02402E+14;20240204_04:21:29.815;1707060089815;-0,0007374;0,0306218;-0,298782;1,53563;;;;;RELAX
2,02402E+14;20240204_04:21:29.822;1707060089822;0,386389;-0,0615528;-0,298782;1,53563;;;;;RELAX
2,02402E+14;20240204_04:21:29.832;1707060089832;0,307109;-0,714121;0,398262;1,86557;;;;;RELAX
2,02402E+14;20240204_04:21:29.839;1707060089839;0,307109;-0,714121;0,398262;1,86557;;;;;RELAX
2,02402E+14;20240204_04:21:29.848;1707060089848;2,90917;-0,695152;2,16665;4,00042;;;;;RELAX
2,02402E+14;20240204_04:21:29.856;1707060089856;2,90917;-0,695152;2,16665;4,00042;;;;;RELAX
2,02402E+14;20240204_04:21:29.865;1707060089865;3,29916;1,02971;1,22545;4,50745;;;;;RELAX
2,02402E+14;20240204_04:21:29.874;1707060089874;2,38061;0,874446;0,909097;4,50745;;;;;RELAX
2,02402E+14;20240204_04:21:29.882;1707060089882;2,12455;0,878896;0,609695;4,30243;;;;;RELAX
2,02402E+14;20240204_04:21:29.890;1707060089890;2,55826;0,378374;2,12121;4,41185;;;;;RELAX
2,02402E+14;20240204_04:21:29.898;1707060089898;3,27385;0,365232;2,12121;4,14447;;;;;RELAX
2,02402E+14;20240204_04:21:29.907;1707060089907;3,36768;1,17584;0,939274;3,99011;;;;;RELAX
2,02402E+14;20240204_04:21:29.916;1707060089916;3,36768;1,17584;0,939274;3,99011;;;;;RELAX
2,02402E+14;20240204_04:21:29.923;1707060089923;0,0000453;1,71861;2,28438;4,63745;;;;;RELAX
2,02402E+14;20240204_04:21:29.931;1707060089931;0,0000453;1,71861;2,28438;4,63745;;;;;RELAX
2,02402E+14;20240204_04:21:29.941;1707060089941;3,20331;0,906044;1,66302;3,80129;;;;;RELAX
2,02402E+14;20240204_04:21:29.949;1707060089949;2,71178;0,535726;0,800727;3,26703;;;;;RELAX
2,02402E+14;20240204_04:21:29.956;1707060089956;2,71178;0,535726;0,800727;3,26703;;;;;RELAX
2,02402E+14;20240204_04:21:29.965;1707060089965;2,71953;1,16054;2,03382;3,27346;;;;;RELAX
2,02402E+14;20240204_04:21:29.973;1707060089973;2,71953;1,16054;2,03382;3,27346;;;;;RELAX
2,02402E+14;20240204_04:21:29.982;1707060089982;1,11461;0,567684;0,765835;2,48947;;;;;RELAX
2,02402E+14;20240204_04:21:29.990;1707060089990;1,11461;0,567684;0,765835;2,48947;;;;;RELAX
2,02402E+14;20240204_04:21:29.999;1707060089999;1,44044;0,0253709;1,04275;1,91427;;;;;RELAX
2,02402E+14;20240204_04:21:30.006;1707060090006;1,44044;0,0253709;1,04275;1,91427;;;;;RELAX
2,02402E+14;20240204_04:21:30.014;1707060090014;0,14977;-0,0871218;0,510698;2,00769;;;;;RELAX
2,02402E+14;20240204_04:21:30.024;1707060090024;-0,159179;0,400039;0,283355;1,82285;;;;;RELAX
2,02402E+14;20240204_04:21:30.031;1707060090031;-0,159179;0,400039;0,283355;1,82285;;;;;RELAX
2,02402E+14;20240204_04:21:30.040;1707060090040;-0,859431;1,14962;-0,502379;0,20865;;;;;RELAX
2,02402E+14;20240204_04:21:30.048;1707060090048;-0,859431;1,14962;-0,502379;0,20865;;;;;RELAX
2,02402E+14;20240204_04:21:30.056;1707060090056;-0,622386;-0,101568;-0,426813;0,651987;;;;;RELAX
2,02402E+14;20240204_04:21:30.065;1707060090065;-0,622386;-0,101568;-0,426813;0,651987;;;;;RELAX
2,02402E+14;20240204_04:21:30.074;1707060090074;-0,082643;-0,539474;-1,17184;0,181473;;;;;RELAX
2,02402E+14;20240204_04:21:30.081;1707060090081;-0,082643;-0,539474;-1,17184;0,181473;;;;;RELAX
2,02402E+14;20240204_04:21:30.092;1707060090092;-0,805411;-0,953972;-1,26279;0,103398;;;;;BLINK
2,02402E+14;20240204_04:21:30.098;1707060090098;-0,805411;-0,953972;-1,26279;0,103398;;;;;BLINK
2,02402E+14;20240204_04:21:30.107;1707060090107;0,468801;1,24268;-0,034396;0,877172;;;;;BLINK
2,02402E+14;20240204_04:21:30.115;1707060090115;-0,27057;-0,428686;-2,15307;-0,273569;;;;;BLINK
2,02402E+14;20240204_04:21:30.123;1707060090123;-0,27057;-0,428686;-2,15307;-0,273569;;;;;BLINK
2,02402E+14;20240204_04:21:30.132;1707060090132;-1,66518;-0,924699;-1,89974;-0,593322;;;;;BLINK
2,02402E+14;20240204_04:21:30.139;1707060090139;-1,66518;-0,924699;-1,89974;-0,593322;;;;;BLINK
2,02402E+14;20240204_04:21:30.148;1707060090148;-0,746727;-0,837377;-0,039201;0,322956;;;;;BLINK
2,02402E+14;20240204_04:21:30.157;1707060090157;-0,570569;-0,837377;-0,813654;0,694615;;;;;BLINK
2,02402E+14;20240204_04:21:30.166;1707060090166;-0,0901806;0,0973333;-0,808831;0,017636;;;;;BLINK
2,02402E+14;20240204_04:21:30.174;1707060090174;-1,28819;-0,0136836;-0,618937;0,0154013;;;;;BLINK
2,02402E+14;20240204_04:21:30.182;1707060090182;-1,28819;-0,0136836;-0,618937;0,0154013;;;;;BLINK
2,02402E+14;20240204_04:21:30.190;1707060090190;-1,07678;-0,055531;-0,710068;-0,123106;;;;;BLINK
2,02402E+14;20240204_04:21:30.198;1707060090198;-1,07678;-0,055531;-0,710068;-0,123106;;;;;BLINK
2,02402E+14;20240204_04:21:30.208;1707060090208;-0,416573;-0,981732;-0,978175;-0,850874;;;;;BLINK
2,02402E+14;20240204_04:21:30.216;1707060090216;-0,416573;-0,548436;-0,799634;-0,345352;;;;;BLINK
2,02402E+14;20240204_04:21:30.224;1707060090224;-1,39884;-0,432261;-0,471462;-0,00048867;;;;;BLINK
2,02402E+14;20240204_04:21:30.231;1707060090231;-1,39884;-0,432261;-0,471462;-0,00048867;;;;;BLINK
2,02402E+14;20240204_04:21:30.241;1707060090241;-0,13621;-1,19205;-0,0380135;-0,0972557;;;;;BLINK
2,02402E+14;20240204_04:21:30.249;1707060090249;0,104858;0,162199;-0,141749;-0,413754;;;;;BLINK
2,02402E+14;20240204_04:21:30.256;1707060090256;0,104858;0,162199;-0,141749;-0,413754;;;;;BLINK
2,02402E+14;20240204_04:21:30.266;1707060090266;0,815118;0,462363;0,773528;0,494172;;;;;BLINK
2,02402E+14;20240204_04:21:30.274;1707060090274;0,815118;0,462363;0,773528;0,494172;;;;;BLINK
2,02402E+14;20240204_04:21:30.291;1707060090291;-0,155516;1,32987;-0,598204;1,12305;;;;;BLINK
2,02402E+14;20240204_04:21:30.298;1707060090298;-1,94904;-0,13231;-1,82738;-0,244723;;;;;BLINK
2,02402E+14;20240204_04:21:30.306;1707060090306;-1,94904;-0,13231;-1,82738;-0,244723;;;;;BLINK
2,02402E+14;20240204_04:21:30.315;1707060090315;-3,33057;-2,10192;-2,33221;-1,39014;;;;;BLINK
2,02402E+14;20240204_04:21:30.323;1707060090323;-3,28919;-0,18237;-0,02638;-1,19502;;;;;BLINK
2,02402E+14;20240204_04:21:30.331;1707060090331;-1,15263;-0,642355;-1,39858;-0,278031;;;;;BLINK
2,02402E+14;20240204_04:21:30.341;1707060090341;0,618241;1,20563;1,15723;0,827975;;;;;BLINK
2,02402E+14;20240204_04:21:30.348;1707060090348;0,618241;1,20563;1,15723;0,827975;;;;;BLINK
2,02402E+14;20240204_04:21:30.357;1707060090357;-0,239405;0,832966;-0,0189766;0,285019;;;;;BLINK
2,02402E+14;20240204_04:21:30.366;1707060090366;-0,239405;0,832966;-0,0189766;0,285019;;;;;BLINK
2,02402E+14;20240204_04:21:30.373;1707060090373;-1,59915;-1,47393;-1,83537;-0,242852;;;;;BLINK
2,02402E+14;20240204_04:21:30.382;1707060090382;-1,59915;-1,47393;-1,83537;-0,242852;;;;;BLINK
2,02402E+14;20240204_04:21:30.391;1707060090391;-1,61026;-1,13239;-0,932658;-0,907197;;;;;BLINK
2,02402E+14;20240204_04:21:30.399;1707060090399;-1,77719;-1,23898;-0,793237;-1,67116;;;;;BLINK
2,02402E+14;20240204_04:21:30.407;1707060090407;-1,77719;-1,04554;-0,523781;-2,28053;;;;;BLINK
2,02402E+14;20240204_04:21:30.416;1707060090416;-1,61335;-0,895386;-0,324512;-1,90583;;;;;BLINK
2,02402E+14;20240204_04:21:30.423;1707060090423;-1,61335;-0,895386;-0,324512;-1,90583;;;;;BLINK
2,02402E+14;20240204_04:21:30.431;1707060090431;-1,28359;-0,385502;-0,292371;-0,807231;;;;;BLINK
2,02402E+14;20240204_04:21:30.440;1707060090440;-1,28359;-0,385502;-0,292371;-0,807231;;;;;BLINK
2,02402E+14;20240204_04:21:30.450;1707060090450;-0,687125;0,700124;-0,101617;0,780512;;;;;BLINK
2,02402E+14;20240204_04:21:30.457;1707060090457;-0,687125;0,700124;-0,101617;0,780512;;;;;BLINK
2,02402E+14;20240204_04:21:30.467;1707060090467;-0,395053;0,245684;-0,0353284;-0,109318;;;;;BLINK
2,02402E+14;20240204_04:21:30.483;1707060090483;-1,78289;-0,164026;-0,287572;0,0010133;;;;;BLINK
2,02402E+14;20240204_04:21:30.499;1707060090499;-0,983268;0,0848317;-1,74647;-0,181531;;;;;BLINK
2,02402E+14;20240204_04:21:30.508;1707060090508;-0,625143;-0,015497;-0,0037433;-0,058602;;;;;BLINK
2,02402E+14;20240204_04:21:30.516;1707060090516;-0,625143;-0,015497;-0,0037433;-0,058602;;;;;BLINK
2,02402E+14;20240204_04:21:30.524;1707060090524;-0,439601;-0,194742;0,104029;-0,0678965;;;;;BLINK
2,02402E+14;20240204_04:21:30.532;1707060090532;-0,439601;-0,194742;0,104029;-0,0678965;;;;;BLINK
2,02402E+14;20240204_04:21:30.540;1707060090540;1,14615;-0,202854;0,563266;0,409242;;;;;BLINK
2,02402E+14;20240204_04:21:30.548;1707060090548;2,14366;0,995115;1,12766;1,12081;;;;;BLINK
2,02402E+14;20240204_04:21:30.557;1707060090557;2,14366;0,995115;1,12766;1,12081;;;;;BLINK
2,02402E+14;20240204_04:21:30.566;1707060090566;-0,985002;0,141413;-0,0281148;0,890575;;;;;BLINK
2,02402E+14;20240204_04:21:30.573;1707060090573;-0,985002;0,141413;-0,0281148;0,890575;;;;;BLINK
2,02402E+14;20240204_04:21:30.582;1707060090582;-0,298673;0,207611;0,046983;0,902768;;;;;BLINK
2,02402E+14;20240204_04:21:30.590;1707060090590;-0,298673;0,207611;0,046983;0,902768;;;;;BLINK
2,02402E+14;20240204_04:21:30.600;1707060090600;-0,017805;0,230242;-0,0828695;0,911872;;;;;BLINK
2,02402E+14;20240204_04:21:30.608;1707060090608;0,848736;0,159401;-0,207664;1,24532;;;;;BLINK
2,02402E+14;20240204_04:21:30.616;1707060090616;0,485549;0,289937;-0,0268468;1,12673;;;;;BLINK
2,02402E+14;20240204_04:21:30.624;1707060090624;0,485549;0,289937;-0,0268468;1,12673;;;;;BLINK
2,02402E+14;20240204_04:21:30.633;1707060090633;-0,14539;0,174921;-1,06271;0,775435;;;;;BLINK
2,02402E+14;20240204_04:21:30.641;1707060090641;-0,111627;0,491607;-1,21046;1,40687;;;;;BLINK
2,02402E+14;20240204_04:21:30.648;1707060090648;0,085381;1,14542;-0,673736;1,61061;;;;;BLINK
2,02402E+14;20240204_04:21:30.658;1707060090658;1,25585;1,14542;0,0776253;0,737317;;;;;BLINK
2,02402E+14;20240204_04:21:30.665;1707060090665;1,25585;1,14542;0,0776253;0,737317;;;;;BLINK
2,02402E+14;20240204_04:21:30.674;1707060090674;0,025501;0,013312;1,30343;-0,0602553;;;;;BLINK
2,02402E+14;20240204_04:21:30.682;1707060090682;0,025501;0,013312;1,30343;-0,0602553;;;;;BLINK
2,02402E+14;20240204_04:21:30.691;1707060090691;0,672658;-0,0556034;0,0211516;0,995729;;;;;BLINK
2,02402E+14;20240204_04:21:30.699;1707060090699;0,858142;-0,844416;-0,668665;0,995729;;;;;BLINK
2,02402E+14;20240204_04:21:30.708;1707060090708;0,756372;-1,41702;-1,97928;1,39938;;;;;BLINK
2,02402E+14;20240204_04:21:30.724;1707060090724;-0,046569;-3,13413;-3,32786;0,125327;;;;;BLINK
2,02402E+14;20240204_04:21:30.733;1707060090733;-4,65714;-7,57069;-6,64217;-4,07471;;;;;BLINK
2,02402E+14;20240204_04:21:30.742;1707060090742;-5,79136;-9,65586;-0,83748;-5,53044;;;;;BLINK
2,02402E+14;20240204_04:21:30.749;1707060090749;-7,75111;-0.000108295;-9,72619;-6,49363;;;;;BLINK
2,02402E+14;20240204_04:21:30.758;1707060090758;-9,19342;-0.000113875;-0.000106603;-7,20728;;;;;BLINK
2,02402E+14;20240204_04:21:30.765;1707060090765;-8,97639;-0.000119048;-0.000107522;-8,01454;;;;;BLINK
2,02402E+14;20240204_04:21:30.774;1707060090774;-8,18059;-0.000120588;-0.000103396;-8,20687;;;;;BLINK
2,02402E+14;20240204_04:21:30.782;1707060090782;-8,18059;-0.000120588;-0.000103396;-8,20687;;;;;BLINK
2,02402E+14;20240204_04:21:30.791;1707060090791;-8,46177;-0.000111915;-9,77626;-0,77684;;;;;BLINK
2,02402E+14;20240204_04:21:30.798;1707060090798;-8,46177;-0.000111915;-9,33954;-7,16215;;;;;BLINK
2,02402E+14;20240204_04:21:30.808;1707060090808;-7,91866;-9,14345;-8,98237;-5,88488;;;;;BLINK
2,02402E+14;20240204_04:21:30.815;1707060090815;-7,91866;-9,14345;-8,98237;-5,88488;;;;;BLINK
2,02402E+14;20240204_04:21:30.825;1707060090825;-5,79957;-7,86642;-7,60251;-5,17236;;;;;BLINK
2,02402E+14;20240204_04:21:30.832;1707060090832;-5,79957;-7,86642;-7,60251;-5,17236;;;;;BLINK
2,02402E+14;20240204_04:21:30.841;1707060090841;-6,80908;-7,39972;-6,62088;-5,02596;;;;;BLINK
2,02402E+14;20240204_04:21:30.849;1707060090849;-4,59394;-5,72637;-4,62707;-3,30352;;;;;BLINK
2,02402E+14;20240204_04:21:30.857;1707060090857;-4,59394;-5,72637;-4,62707;-3,30352;;;;;BLINK
2,02402E+14;20240204_04:21:30.866;1707060090866;-1,84326;-1,97859;-2,24531;0,726258;;;;;BLINK
2,02402E+14;20240204_04:21:30.874;1707060090874;-1,84326;-1,97859;-2,24531;0,726258;;;;;BLINK
2,02402E+14;20240204_04:21:30.883;1707060090883;1,81493;1,40855;1,97886;2,48445;;;;;BLINK
2,02402E+14;20240204_04:21:30.891;1707060090891;1,81493;1,40855;1,97886;2,48445;;;;;BLINK
2,02402E+14;20240204_04:21:30.899;1707060090899;3,53208;2,83664;3,54125;3,16471;;;;;BLINK
2,02402E+14;20240204_04:21:30.907;1707060090907;3,53208;2,83664;3,54125;3,16471;;;;;BLINK
2,02402E+14;20240204_04:21:30.916;1707060090916;4,83374;4,40355;5,47749;4,10569;;;;;BLINK
2,02402E+14;20240204_04:21:30.925;1707060090925;5,55935;6,50844;6,59194;6,22287;;;;;BLINK
2,02402E+14;20240204_04:21:30.933;1707060090933;5,55935;6,50844;6,59194;6,22287;;;;;BLINK
2,02402E+14;20240204_04:21:30.941;1707060090941;6,60762;7,70046;7,94773;7,19826;;;;;BLINK
2,02402E+14;20240204_04:21:30.950;1707060090950;6,60762;7,70046;7,94773;7,19826;;;;;BLINK
2,02402E+14;20240204_04:21:30.958;1707060090958;6,88162;7,59179;7,12226;7,16178;;;;;BLINK
2,02402E+14;20240204_04:21:30.967;1707060090967;6,88162;7,59179;7,12226;7,16178;;;;;BLINK
2,02402E+14;20240204_04:21:30.974;1707060090974;6,49618;0,72227;7,21103;0,68503;;;;;BLINK
2,02402E+14;20240204_04:21:30.983;1707060090983;7,03812;0,82162;7,25293;7,72512;;;;;BLINK
2,02402E+14;20240204_04:21:30.992;1707060090992;8,12682;0,83381;0,73923;8,08361;;;;;BLINK
2,02402E+14;20240204_04:21:31.000;1707060091000;8,12682;0,83381;0,73923;8,08361;;;;;BLINK
2,02402E+14;20240204_04:21:31.007;1707060091007;7,40944;7,84702;8,11532;7,14812;;;;;BLINK
2,02402E+14;20240204_04:21:31.016;1707060091016;7,18786;8,03749;0,81152;7,21119;;;;;BLINK
2,02402E+14;20240204_04:21:31.024;1707060091024;7,18786;8,03749;0,81152;7,21119;;;;;BLINK
2,02402E+14;20240204_04:21:31.033;1707060091033;8,06427;8,59441;0,73614;7,67502;;;;;BLINK
2,02402E+14;20240204_04:21:31.041;1707060091041;8,06427;8,59441;0,73614;7,67502;;;;;BLINK
2,02402E+14;20240204_04:21:31.050;1707060091050;7,41195;8,09223;7,05373;6,57821;;;;;BLINK
2,02402E+14;20240204_04:21:31.057;1707060091057;0,70536;0,67414;6,26557;5,90679;;;;;BLINK
2,02402E+14;20240204_04:21:31.067;1707060091067;4,90653;5,67214;5,77616;5,25082;;;;;BLINK
2,02402E+14;20240204_04:21:31.075;1707060091075;0,36258;5,05142;6,15832;0,47485;;;;;BLINK
2,02402E+14;20240204_04:21:31.083;1707060091083;0,36258;0,47653;6,15832;0,47485;;;;;BLINK
2,02402E+14;20240204_04:21:31.092;1707060091092;4,96417;5,34999;5,59582;5,24575;;;;;BLINK
2,02402E+14;20240204_04:21:31.101;1707060091101;4,96417;5,34999;5,59582;5,24575;;;;;BLINK
2,02402E+14;20240204_04:21:31.117;1707060091117;5,39553;4,49451;0,43461;3,71141;;;;;BLINK
2,02402E+14;20240204_04:21:31.125;1707060091125;4,60137;3,96237;3,81676;3,62132;;;;;BLINK
2,02402E+14;20240204_04:21:31.134;1707060091134;0,45474;3,71957;4,12283;3,28347;;;;;BLINK
2,02402E+14;20240204_04:21:31.140;1707060091140;0,45474;3,71957;4,12283;3,28347;;;;;BLINK
2,02402E+14;20240204_04:21:31.150;1707060091150;2,43628;2,58296;2,55379;2,41159;;;;;BLINK
2,02402E+14;20240204_04:21:31.158;1707060091158;2,43628;2,58296;2,55379;2,41159;;;;;BLINK
2,02402E+14;20240204_04:21:31.166;1707060091166;1,06363;1,63509;1,61688;0,19289;;;;;BLINK
2,02402E+14;20240204_04:21:31.174;1707060091174;0,055123;1,63509;1,61688;1,50518;;;;;BLINK
2,02402E+14;20240204_04:21:31.183;1707060091183;1,48177;1,57047;1,64586;1,21281;;;;;BLINK
2,02402E+14;20240204_04:21:31.192;1707060091192;1,48177;1,57047;1,64586;1,21281;;;;;BLINK
2,02402E+14;20240204_04:21:31.200;1707060091200;1,31258;0,27645;2,04574;1,70449;;;;;BLINK
2,02402E+14;20240204_04:21:31.208;1707060091208;2,23911;2,35497;1,96866;1,44342;;;;;BLINK
2,02402E+14;20240204_04:21:31.216;1707060091216;0,15268;1,77042;1,41296;0,969726;;;;;BLINK
2,02402E+14;20240204_04:21:31.226;1707060091226;0,270773;0,862195;0,924155;0,148542;;;;;BLINK
2,02402E+14;20240204_04:21:31.242;1707060091242;-0,619625;-0,0418129;0,848593;0,122971;;;;;BLINK
2,02402E+14;20240204_04:21:31.249;1707060091249;-0,619625;-0,0418129;0,848593;0,122971;;;;;BLINK
2,02402E+14;20240204_04:21:31.259;1707060091259;-0,779599;-0,140982;-0,470355;-0,027898;;;;;BLINK
2,02402E+14;20240204_04:21:31.266;1707060091266;-0,779599;-0,140982;-0,470355;-0,027898;;;;;BLINK
2,02402E+14;20240204_04:21:31.276;1707060091276;-1,94162;0,362343;-0,792467;-0,403403;;;;;BLINK
2,02402E+14;20240204_04:21:31.284;1707060091284;-1,41528;-0,412539;-0,643126;-0,333052;;;;;BLINK
2,02402E+14;20240204_04:21:31.291;1707060091291;-1,41528;-0,412539;-0,643126;-0,333052;;;;;BLINK
2,02402E+14;20240204_04:21:31.300;1707060091300;0,397571;-0,130455;0,483084;-0,588276;;;;;BLINK
2,02402E+14;20240204_04:21:31.309;1707060091309;0,397571;-0,130455;0,483084;-0,588276;;;;;BLINK
2,02402E+14;20240204_04:21:31.317;1707060091317;-0,875777;-0,037884;-0,409747;-0,547897;;;;;BLINK
2,02402E+14;20240204_04:21:31.324;1707060091324;-0,875777;-0,037884;-0,409747;-0,547897;;;;;BLINK
2,02402E+14;20240204_04:21:31.334;1707060091334;-0,896847;-0,883477;-0,328272;-1,20106;;;;;BLINK
2,02402E+14;20240204_04:21:31.341;1707060091341;-0,896847;-0,883477;-0,328272;-1,20106;;;;;BLINK
2,02402E+14;20240204_04:21:31.350;1707060091350;-1,24925;-0,517703;-0,513287;-0,665776;;;;;BLINK
2,02402E+14;20240204_04:21:31.368;1707060091368;0,040352;-0,0123924;0,355639;0,0008871;;;;;BLINK
2,02402E+14;20240204_04:21:31.383;1707060091383;0,12628;-0,0596054;0,783476;-0,012534;;;;;BLINK
2,02402E+14;20240204_04:21:31.392;1707060091392;1,19495;0,023083;1,15923;-0,136036;;;;;BLINK
2,02402E+14;20240204_04:21:31.400;1707060091400;0,937805;0,870863;0,554298;0,625096;;;;;BLINK
2,02402E+14;20240204_04:21:31.409;1707060091409;-0,219356;-0,179913;0,793407;0,783438;;;;;BLINK
2,02402E+14;20240204_04:21:31.425;1707060091425;-0,20612;-0,22831;0,257041;-0,996686;;;;;BLINK
2,02402E+14;20240204_04:21:31.433;1707060091433;-0,088394;-1,88469;-0,13111;-0,075595;;;;;BLINK
2,02402E+14;20240204_04:21:31.442;1707060091442;-0,088394;-1,88469;-0,13111;-0,075595;;;;;BLINK
2,02402E+14;20240204_04:21:31.450;1707060091450;-1,48086;-1,13266;-1,19597;-0,130513;;;;;BLINK
2,02402E+14;20240204_04:21:31.458;1707060091458;-2,42891;-0,510018;-1,35433;0,143605;;;;;BLINK
2,02402E+14;20240204_04:21:31.467;1707060091467;-2,56154;-0,224047;-1,37412;0,108761;;;;;BLINK
2,02402E+14;20240204_04:21:31.474;1707060091474;-2,56154;-0,224047;-1,37412;0,108761;;;;;BLINK
2,02402E+14;20240204_04:21:31.483;1707060091483;-1,06753;0,0952294;-0,858823;-0,0558745;;;;;BLINK
2,02402E+14;20240204_04:21:31.492;1707060091492;-1,06753;0,0952294;-0,858823;-0,0558745;;;;;BLINK
2,02402E+14;20240204_04:21:31.501;1707060091501;-5,26678;-2,33632;-2,01807;-0,01311;;;;;BLINK
2,02402E+14;20240204_04:21:31.508;1707060091508;-5,26678;-2,33632;-2,01807;-0,01311;;;;;BLINK
2,02402E+14;20240204_04:21:31.516;1707060091516;-0,964378;-0,558483;-1,06707;-0,287609;;;;;BLINK
2,02402E+14;20240204_04:21:31.525;1707060091525;-0,0992943;-0,396844;-0,300765;-0,0925435;;;;;BLINK
2,02402E+14;20240204_04:21:31.533;1707060091533;0,279613;-0,479723;-0,233661;0,334807;;;;;BLINK
2,02402E+14;20240204_04:21:31.542;1707060091542;-0,197984;-0,530883;-0,890166;1,23098;;;;;BLINK
2,02402E+14;20240204_04:21:31.550;1707060091550;-0,197984;-0,530883;-0,890166;1,23098;;;;;BLINK
2,02402E+14;20240204_04:21:31.559;1707060091559;1,87172;0,005491;-0,486274;3,10341;;;;;BLINK
2,02402E+14;20240204_04:21:31.566;1707060091566;1,87172;0,005491;-0,486274;3,10341;;;;;BLINK
2,02402E+14;20240204_04:21:31.576;1707060091576;0,497429;0,425569;-0,030479;3,90633;;;;;BLINK
2,02402E+14;20240204_04:21:31.584;1707060091584;2,57412;0,241664;0,488845;3,51545;;;;;BLINK
2,02402E+14;20240204_04:21:31.593;1707060091593;2,57412;0,241664;0,488845;3,51545;;;;;BLINK
2,02402E+14;20240204_04:21:31.601;1707060091601;2,57412;0,241664;0,488845;3,51545;;;;;BLINK
2,02402E+14;20240204_04:21:31.608;1707060091608;2,56302;-0,00174745;-0,0187008;0,26145;;;;;BLINK
2,02402E+14;20240204_04:21:31.617;1707060091617;0,29451;0,457022;-0,0110343;2,44485;;;;;BLINK
2,02402E+14;20240204_04:21:31.625;1707060091625;0,29451;0,457022;-0,0110343;2,44485;;;;;BLINK
2,02402E+14;20240204_04:21:31.634;1707060091634;3,69401;1,43476;0,292585;2,73066;;;;;BLINK
2,02402E+14;20240204_04:21:31.642;1707060091642;3,69401;1,43476;0,292585;2,73066;;;;;BLINK
2,02402E+14;20240204_04:21:31.651;1707060091651;2,47219;0,959576;0,387474;2,59229;;;;;BLINK
2,02402E+14;20240204_04:21:31.659;1707060091659;2,47219;0,959576;0,387474;2,59229;;;;;BLINK
2,02402E+14;20240204_04:21:31.667;1707060091667;0,170345;-0,494968;-0,180573;0,01158;;;;;BLINK
2,02402E+14;20240204_04:21:31.676;1707060091676;-0,0757601;-1,46449;0,360275;-0,615781;;;;;BLINK
2,02402E+14;20240204_04:21:31.683;1707060091683;-0,0757601;-1,46449;0,360275;-0,615781;;;;;BLINK
2,02402E+14;20240204_04:21:31.692;1707060091692;0,711249;-1,05404;-0,301603;-0,181212;;;;;BLINK
2,02402E+14;20240204_04:21:31.701;1707060091701;0,711249;-1,05404;-0,301603;-0,181212;;;;;BLINK
2,02402E+14;20240204_04:21:31.709;1707060091709;-0,0034298;-0,0701587;0,12696;0,570704;;;;;BLINK
2,02402E+14;20240204_04:21:31.717;1707060091717;0,229964;-0,0701587;0,332324;0,859866;;;;;BLINK
2,02402E+14;20240204_04:21:31.725;1707060091725;0,0960269;0,702193;-0,608823;0,794597;;;;;BLINK
2,02402E+14;20240204_04:21:31.733;1707060091733;-0,363806;0,503636;-0,935842;0,680744;;;;;BLINK
2,02402E+14;20240204_04:21:31.741;1707060091741;-0,363806;0,503636;-0,935842;0,680744;;;;;BLINK
2,02402E+14;20240204_04:21:31.751;1707060091751;-1,50026;-0,757251;-0,910725;-0,10426;;;;;BLINK
2,02402E+14;20240204_04:21:31.759;1707060091759;-1,50026;-0,757251;-0,910725;-0,10426;;;;;BLINK
2,02402E+14;20240204_04:21:31.767;1707060091767;-2,12259;-0,769513;-0,722355;-1,59252;;;;;BLINK
2,02402E+14;20240204_04:21:31.775;1707060091775;-2,12259;-0,769513;-0,722355;-1,59252;;;;;BLINK
2,02402E+14;20240204_04:21:31.783;1707060091783;-1,78101;-0,455134;-1,53579;-0,830585;;;;;BLINK
2,02402E+14;20240204_04:21:31.793;1707060091793;-1,78101;-0,455134;-1,53579;-0,830585;;;;;BLINK
2,02402E+14;20240204_04:21:31.801;1707060091801;-0,322421;0,897228;-0,489666;-0,319474;;;;;BLINK
2,02402E+14;20240204_04:21:31.809;1707060091809;-0,139088;-0,884626;-0,106403;-1,07445;;;;;BLINK
2,02402E+14;20240204_04:21:31.817;1707060091817;-0,139088;-0,884626;-0,106403;-1,07445;;;;;BLINK
2,02402E+14;20240204_04:21:31.825;1707060091825;-2,33052;-1,07148;-1,68078;-0,673787;;;;;BLINK
2,02402E+14;20240204_04:21:31.834;1707060091834;-2,33052;-1,07148;-1,68078;-0,062675;;;;;BLINK
2,02402E+14;20240204_04:21:31.843;1707060091843;-0,13633;0,185406;0,153967;-0,00894923;;;;;BLINK
2,02402E+14;20240204_04:21:31.850;1707060091850;-0,13633;0,185406;0,153967;-0,00894923;;;;;BLINK
2,02402E+14;20240204_04:21:31.859;1707060091859;-0,157978;0,578015;0,00937092;0,394807;;;;;BLINK
2,02402E+14;20240204_04:21:31.867;1707060091867;-0,177263;-0,105126;-1,45138;-0,164294;;;;;BLINK
2,02402E+14;20240204_04:21:31.876;1707060091876;-0,162592;-0,090609;-1,76923;-0,564618;;;;;BLINK
2,02402E+14;20240204_04:21:31.883;1707060091883;-0,974718;-1,08435;-1,15145;-0,780447;;;;;BLINK
2,02402E+14;20240204_04:21:31.892;1707060091892;-1,70153;-0,631425;-0,424995;-0,933052;;;;;BLINK
2,02402E+14;20240204_04:21:31.901;1707060091901;-1,51288;-1,08185;-1,35893;-0,890863;;;;;BLINK
2,02402E+14;20240204_04:21:31.908;1707060091908;-1,51288;-1,08185;-1,35893;-0,890863;;;;;BLINK
2,02402E+14;20240204_04:21:31.917;1707060091917;-1,83143;-1,16525;-1,59272;-0,287059;;;;;BLINK
2,02402E+14;20240204_04:21:31.925;1707060091925;-1,83143;-1,16525;-1,59272;-0,287059;;;;;BLINK
2,02402E+14;20240204_04:21:31.934;1707060091934;-0,340113;-0,478239;0,0258444;-0,0862776;;;;;BLINK
2,02402E+14;20240204_04:21:31.942;1707060091942;-0,340113;-0,478239;0,0258444;-0,0862776;;;;;BLINK
2,02402E+14;20240204_04:21:31.951;1707060091951;0,0955629;0,0742723;-0,800341;0,020279;;;;;BLINK
2,02402E+14;20240204_04:21:31.960;1707060091960;-1,77536;-0,281261;-1,18753;-0,152372;;;;;BLINK
2,02402E+14;20240204_04:21:31.976;1707060091976;-0,13846;-0,387565;-0,12915;-0,100022;;;;;BLINK
2,02402E+14;20240204_04:21:31.983;1707060091983;-0,13846;-0,387565;-0,12915;-0,100022;;;;;BLINK
2,02402E+14;20240204_04:21:31.992;1707060091992;-1,50162;0,00816131;-0,551835;-0,387011;;;;;BLINK
2,02402E+14;20240204_04:21:32.000;1707060092000;-1,50162;0,00816131;-0,551835;-0,387011;;;;;BLINK
2,02402E+14;20240204_04:21:32.009;1707060092009;-1,45516;-0,582136;-0,351085;-0,032884;;;;;BLINK
2,02402E+14;20240204_04:21:32.017;1707060092017;-1,45516;-0,582136;-0,351085;-0,032884;;;;;BLINK
2,02402E+14;20240204_04:21:32.026;1707060092026;-1,43519;-0,043311;-0,409313;-1,02069;;;;;BLINK
2,02402E+14;20240204_04:21:32.035;1707060092035;-0,071466;0,476102;0,392604;-0,679753;;;;;BLINK
2,02402E+14;20240204_04:21:32.043;1707060092043;-0,071466;0,476102;0,392604;-0,653671;;;;;BLINK
2,02402E+14;20240204_04:21:32.050;1707060092050;0,230932;0,635973;0,502934;-0,274201;;;;;BLINK
2,02402E+14;20240204_04:21:32.059;1707060092059;0,230932;0,635973;0,502934;-0,274201;;;;;BLINK
2,02402E+14;20240204_04:21:32.067;1707060092067;0,00212185;0,955213;0,444969;-0,397643;;;;;BLINK
2,02402E+14;20240204_04:21:32.075;1707060092075;-0,103115;-0,137753;0,0709905;-1,00324;;;;;BLINK
2,02402E+14;20240204_04:21:32.083;1707060092083;-0,806807;-0,604054;0,189833;-1,12962;;;;;BLINK
2,02402E+14;20240204_04:21:32.093;1707060092093;-0,806807;-0,604054;0,189833;-1,12962;;;;;BLINK_TWICE
2,02402E+14;20240204_04:21:32.101;1707060092101;-0,713517;-0,00792794;0,146305;-1,07971;;;;;BLINK_TWICE
2,02402E+14;20240204_04:21:32.109;1707060092109;-0,713517;-0,00792794;0,146305;-1,07971;;;;;BLINK_TWICE
2,02402E+14;20240204_04:21:32.117;1707060092117;-0,399674;-0,718122;0,548574;-1,48804;;;;;BLINK_TWICE
2,02402E+14;20240204_04:21:32.125;1707060092125;-0,399674;-0,718122;0,548574;-1,48804;;;;;BLINK_TWICE
2,02402E+14;20240204_04:21:32.134;1707060092134;-0,688592;-0,0144788;-0,593991;-0,818984;;;;;BLINK_TWICE
2,02402E+14;20240204_04:21:32.143;1707060092143;-0,817487;0,101235;-0,357339;-0,460721;;;;;BLINK_TWICE
2,02402E+14;20240204_04:21:32.151;1707060092151;-0,817487;0,101235;-0,357339;-0,460721;;;;;BLINK_TWICE
2,02402E+14;20240204_04:21:32.159;1707060092159;0,0960814;0,588558;-0,112484;-0,961689;;;;;BLINK_TWICE
2,02402E+14;20240204_04:21:32.168;1707060092168;-0,622095;0,275803;0,192431;-0,855812;;;;;BLINK_TWICE
2,02402E+14;20240204_04:21:32.176;1707060092176;-2,04011;0,0965997;-0,0558946;-0,854259;;;;;BLINK_TWICE
2,02402E+14;20240204_04:21:32.185;1707060092185;-2,20549;0,0965997;-0,146365;-1,11663;;;;;BLINK_TWICE
2,02402E+14;20240204_04:21:32.193;1707060092193;0,112518;0,343446;0,00399593;-0,450228;;;;;BLINK_TWICE
2,02402E+14;20240204_04:21:32.201;1707060092201;2,30836;1,28134;1,07351;0,318233;;;;;BLINK_TWICE
2,02402E+14;20240204_04:21:32.209;1707060092209;2,30836;1,28134;1,07351;0,318233;;;;;BLINK_TWICE
2,02402E+14;20240204_04:21:32.218;1707060092218;0,866903;1,97656;0,291164;0,668137;;;;;BLINK_TWICE
2,02402E+14;20240204_04:21:32.225;1707060092225;0,866903;1,97656;0,291164;0,668137;;;;;BLINK_TWICE
2,02402E+14;20240204_04:21:32.235;1707060092235;-0,097529;1,03856;-0,606596;0,639412;;;;;BLINK_TWICE
2,02402E+14;20240204_04:21:32.243;1707060092243;-0,357817;-0,106691;0,440386;0,0252883;;;;;BLINK_TWICE
2,02402E+14;20240204_04:21:32.250;1707060092250;-0,357817;-0,106691;0,440386;0,0252883;;;;;BLINK_TWICE
2,02402E+14;20240204_04:21:32.259;1707060092259;-0,0688043;-0,213331;0,949723;-0,689609;;;;;BLINK_TWICE
2,02402E+14;20240204_04:21:32.267;1707060092267;-1,27184;-0,574182;0,0651972;-0,689609;;;;;BLINK_TWICE
2,02402E+14;20240204_04:21:32.275;1707060092275;-1,37987;-1,25746;-0,922287;-0,468438;;;;;BLINK_TWICE
2,02402E+14;20240204_04:21:32.284;1707060092284;-1,37987;-1,25746;-0,922287;-0,468438;;;;;BLINK_TWICE
2,02402E+14;20240204_04:21:32.292;1707060092292;-1,82847;-0,632069;-1,45142;0,150241;;;;;BLINK_TWICE
2,02402E+14;20240204_04:21:32.300;1707060092300;-1,82847;-0,632069;-1,45142;0,150241;;;;;BLINK_TWICE
2,02402E+14;20240204_04:21:32.310;1707060092310;-1,80819;-0,693453;-0,057555;-0,418521;;;;;BLINK_TWICE
2,02402E+14;20240204_04:21:32.318;1707060092318;-1,80819;-0,693453;-0,057555;-0,418521;;;;;BLINK_TWICE
2,02402E+14;20240204_04:21:32.326;1707060092326;0,0539632;-0,500226;-0,687972;-0,072063;;;;;BLINK_TWICE
2,02402E+14;20240204_04:21:32.335;1707060092335;-0,235546;-1,31532;-1,17336;-0,728586;;;;;BLINK_TWICE
2,02402E+14;20240204_04:21:32.342;1707060092342;-1,23958;-1,31532;-1,17336;-0,728586;;;;;BLINK_TWICE
2,02402E+14;20240204_04:21:32.351;1707060092351;-1,02277;-0,962268;-0,851161;-0,236135;;;;;BLINK_TWICE
2,02402E+14;20240204_04:21:32.359;1707060092359;0,509557;-0,740559;-0,616845;0,280945;;;;;BLINK_TWICE
2,02402E+14;20240204_04:21:32.368;1707060092368;1,06434;-0,576398;-0,408008;0,17848;;;;;BLINK_TWICE
2,02402E+14;20240204_04:21:32.375;1707060092375;1,06434;-0,576398;-0,408008;0,17848;;;;;BLINK_TWICE
2,02402E+14;20240204_04:21:32.384;1707060092384;2,32066;0,121441;-1,02927;2,82322;;;;;BLINK_TWICE
2,02402E+14;20240204_04:21:32.393;1707060092393;2,32066;0,121441;-1,02927;2,82322;;;;;BLINK_TWICE
2,02402E+14;20240204_04:21:32.401;1707060092401;2,50669;0,646116;-0,411733;3,39659;;;;;BLINK_TWICE
2,02402E+14;20240204_04:21:32.410;1707060092410;2,88559;1,20551;-0,761724;3,35554;;;;;BLINK_TWICE
2,02402E+14;20240204_04:21:32.418;1707060092418;0,41757;1,69143;-0,0222824;3,18236;;;;;BLINK_TWICE
2,02402E+14;20240204_04:21:32.427;1707060092427;3,94225;0,860124;0,166533;3,19078;;;;;BLINK_TWICE
2,02402E+14;20240204_04:21:32.434;1707060092434;3,94225;0,860124;0,166533;3,19078;;;;;BLINK_TWICE
2,02402E+14;20240204_04:21:32.442;1707060092442;0,29679;0,815782;0,542358;0,32268;;;;;BLINK_TWICE
2,02402E+14;20240204_04:21:32.450;1707060092450;0,29679;0,815782;0,542358;0,32268;;;;;BLINK_TWICE
2,02402E+14;20240204_04:21:32.460;1707060092460;2,90111;0,283691;0,878981;2,67716;;;;;BLINK_TWICE
2,02402E+14;20240204_04:21:32.468;1707060092468;2,19665;0,0293397;0,0292789;2,28831;;;;;BLINK_TWICE
2,02402E+14;20240204_04:21:32.476;1707060092476;0,933986;-0,137575;-0,334294;0,20096;;;;;BLINK_TWICE
2,02402E+14;20240204_04:21:32.485;1707060092485;1,67166;0,328573;-0,434333;1,54359;;;;;BLINK_TWICE
2,02402E+14;20240204_04:21:32.492;1707060092492;1,67166;0,328573;-0,434333;1,54359;;;;;BLINK_TWICE
2,02402E+14;20240204_04:21:32.501;1707060092501;1,92096;0,994115;1,02926;1,57899;;;;;BLINK_TWICE
2,02402E+14;20240204_04:21:32.510;1707060092510;1,92096;0,994115;1,02926;1,57899;;;;;BLINK_TWICE
2,02402E+14;20240204_04:21:32.518;1707060092518;2,29172;0,861894;1,55531;1,60218;;;;;BLINK_TWICE
2,02402E+14;20240204_04:21:32.526;1707060092526;2,29172;0,861894;1,55531;1,60218;;;;;BLINK_TWICE
2,02402E+14;20240204_04:21:32.535;1707060092535;0,090118;0,099538;0,543361;2,25583;;;;;BLINK_TWICE
2,02402E+14;20240204_04:21:32.543;1707060092543;0,090118;0,099538;0,543361;2,25583;;;;;BLINK_TWICE
2,02402E+14;20240204_04:21:32.552;1707060092552;0,455612;0,932562;0,110205;1,94927;;;;;BLINK_TWICE
2,02402E+14;20240204_04:21:32.560;1707060092560;0,0133734;0,686484;0,237469;0,18765;;;;;BLINK_TWICE
2,02402E+14;20240204_04:21:32.567;1707060092567;0,0133734;0,686484;0,237469;0,18765;;;;;BLINK_TWICE
2,02402E+14;20240204_04:21:32.576;1707060092576;0,043726;0,290852;0,503924;0,16167;;;;;BLINK_TWICE
2,02402E+14;20240204_04:21:32.585;1707060092585;0,935457;0,119432;-0,330594;0,913312;;;;;BLINK_TWICE
2,02402E+14;20240204_04:21:32.593;1707060092593;-0,550533;-0,661515;-0,742914;-0,169585;;;;;BLINK_TWICE
2,02402E+14;20240204_04:21:32.602;1707060092602;-0,550533;-0,661515;-0,742914;-0,169585;;;;;BLINK_TWICE
2,02402E+14;20240204_04:21:32.610;1707060092610;0,558953;-0,189561;-0,063822;0,145142;;;;;BLINK_TWICE
2,02402E+14;20240204_04:21:32.618;1707060092618;0,752055;-0,073589;-0,259844;0,183674;;;;;BLINK_TWICE
2,02402E+14;20240204_04:21:32.626;1707060092626;0,001295;-0,994655;-0,056612;0,0731793;;;;;BLINK_TWICE
2,02402E+14;20240204_04:21:32.634;1707060092634;-1,67937;-1,40596;-0,712135;0,0731793;;;;;BLINK_TWICE
2,02402E+14;20240204_04:21:32.642;1707060092642;-1,85291;-1,57645;-0,520042;-0,067699;;;;;BLINK_TWICE
2,02402E+14;20240204_04:21:32.651;1707060092651;-0,693505;-0,339507;-0,617981;-0,246105;;;;;BLINK_TWICE
2,02402E+14;20240204_04:21:32.659;1707060092659;-0,693505;-0,339507;-0,617981;-0,246105;;;;;BLINK_TWICE
2,02402E+14;20240204_04:21:32.669;1707060092669;-0,0893514;0,357177;-0,871401;0,439886;;;;;BLINK_TWICE
2,02402E+14;20240204_04:21:32.676;1707060092676;-0,0893514;0,357177;-0,871401;0,439886;;;;;BLINK_TWICE
2,02402E+14;20240204_04:21:32.684;1707060092684;-0,0768669;0,518144;-0,271986;0,712834;;;;;BLINK_TWICE
2,02402E+14;20240204_04:21:32.694;1707060092694;0,416384;0,0307727;0,340357;0,194023;;;;;BLINK_TWICE
2,02402E+14;20240204_04:21:32.701;1707060092701;0,416384;0,0307727;0,340357;0,194023;;;;;BLINK_TWICE
2,02402E+14;20240204_04:21:32.710;1707060092710;-1,12492;-1,17456;-0,00940111;-0,942417;;;;;BLINK_TWICE
2,02402E+14;20240204_04:21:32.718;1707060092718;-1,12492;-1,17456;-0,00940111;-0,942417;;;;;BLINK_TWICE
2,02402E+14;20240204_04:21:32.727;1707060092727;-0,784563;-0,666267;-0,036335;-0,360573;;;;;BLINK_TWICE
2,02402E+14;20240204_04:21:32.734;1707060092734;-0,784563;-0,666267;-0,036335;-0,360573;;;;;BLINK_TWICE
2,02402E+14;20240204_04:21:32.743;1707060092743;-0,438553;-0,551094;0,0901095;0,226987;;;;;BLINK_TWICE
2,02402E+14;20240204_04:21:32.752;1707060092752;-0,953823;-0,607607;-0,564119;-0,109041;;;;;BLINK_TWICE
2,02402E+14;20240204_04:21:32.759;1707060092759;-0,953823;-0,607607;-0,564119;-0,109041;;;;;BLINK_TWICE
2,02402E+14;20240204_04:21:32.768;1707060092768;-0,953823;-0,607607;-0,564119;-0,109041;;;;;BLINK_TWICE
2,02402E+14;20240204_04:21:32.777;1707060092777;-0,10367;-0,169011;-0,613346;-0,419868;;;;;BLINK_TWICE
2,02402E+14;20240204_04:21:32.785;1707060092785;-1,31623;-0,022596;-0,770466;0,0235119;;;;;BLINK_TWICE
2,02402E+14;20240204_04:21:32.792;1707060092792;-1,31623;-0,022596;-0,770466;0,0235119;;;;;BLINK_TWICE
2,02402E+14;20240204_04:21:32.801;1707060092801;-1,78818;-0,573205;0,126852;-0,038701;;;;;BLINK_TWICE
2,02402E+14;20240204_04:21:32.809;1707060092809;-1,78818;-0,573205;0,126852;-0,038701;;;;;BLINK_TWICE
2,02402E+14;20240204_04:21:32.818;1707060092818;-1,52295;-0,794764;-1,00024;-0,078437;;;;;BLINK_TWICE
2,02402E+14;20240204_04:21:32.826;1707060092826;-1,52295;-0,794764;-1,00024;-0,078437;;;;;BLINK_TWICE
2,02402E+14;20240204_04:21:32.836;1707060092836;-1,50012;-0,570768;-0,579776;-0,994965;;;;;BLINK_TWICE
2,02402E+14;20240204_04:21:32.843;1707060092843;-1,35221;-0,807875;-0,443073;-1,37679;;;;;BLINK_TWICE
2,02402E+14;20240204_04:21:32.852;1707060092852;-0,601777;-0,807875;-0,443073;-1,37679;;;;;BLINK_TWICE
2,02402E+14;20240204_04:21:32.859;1707060092859;-0,590148;-0,123164;-0,391868;-0,710568;;;;;BLINK_TWICE
2,02402E+14;20240204_04:21:32.867;1707060092867;-0,590148;-0,123164;-0,391868;-0,710568;;;;;BLINK_TWICE
2,02402E+14;20240204_04:21:32.876;1707060092876;-2,18057;-0,969614;-0,891298;-0,17644;;;;;BLINK_TWICE
2,02402E+14;20240204_04:21:32.885;1707060092885;-2,18057;-0,969614;-0,891298;-0,17644;;;;;BLINK_TWICE
2,02402E+14;20240204_04:21:32.893;1707060092893;-2,94621;-2,96635;-2,54169;-3,72702;;;;;BLINK_TWICE
2,02402E+14;20240204_04:21:32.901;1707060092901;-2,94621;-2,96635;-2,54169;-3,72702;;;;;BLINK_TWICE
2,02402E+14;20240204_04:21:32.910;1707060092910;-4,17646;-4,13773;-3,38919;-4,78655;;;;;BLINK_TWICE
2,02402E+14;20240204_04:21:32.919;1707060092919;-7,11297;-6,96153;-6,20808;-6,41688;;;;;BLINK_TWICE
2,02402E+14;20240204_04:21:32.926;1707060092926;-7,11297;-6,96153;-6,20808;-6,41688;;;;;BLINK_TWICE
2,02402E+14;20240204_04:21:32.936;1707060092936;-0.000108836;-9,63982;-8,62453;-8,57191;;;;;BLINK_TWICE
2,02402E+14;20240204_04:21:32.942;1707060092942;-0.000108836;-9,63982;-8,62453;-8,57191;;;;;BLINK_TWICE
2,02402E+14;20240204_04:21:32.951;1707060092951;-0.000112653;-0.000110765;-8,74186;-0.000102636;;;;;BLINK_TWICE
2,02402E+14;20240204_04:21:32.960;1707060092960;-0.000112653;-0.000110765;-8,74186;-0.000102636;;;;;BLINK_TWICE
2,02402E+14;20240204_04:21:32.969;1707060092969;-0.000111074;-0.000100658;-9,36604;-0.000103039;;;;;BLINK_TWICE
2,02402E+14;20240204_04:21:32.976;1707060092976;-0.000111074;-0.000100658;-9,36604;-0.000103039;;;;;BLINK_TWICE
2,02402E+14;20240204_04:21:32.986;1707060092986;-0.000102574;-0,85254;-8,80183;-8,85272;;;;;BLINK_TWICE
2,02402E+14;20240204_04:21:33.002;1707060093002;-0,09249;-8,44376;-7,28993;-0,81604;;;;;BLINK_TWICE
2,02402E+14;20240204_04:21:33.010;1707060093010;-6,05038;-6,13665;-5,41618;-6,83606;;;;;BLINK_TWICE
2,02402E+14;20240204_04:21:33.018;1707060093018;-6,05038;-6,13665;-5,41618;-6,83606;;;;;BLINK_TWICE
2,02402E+14;20240204_04:21:33.028;1707060093028;-5,35245;-3,81372;-2,99611;-4,20805;;;;;BLINK_TWICE
2,02402E+14;20240204_04:21:33.044;1707060093044;-4,39155;-2,61073;-2,01877;-0,27975;;;;;BLINK_TWICE
2,02402E+14;20240204_04:21:33.052;1707060093052;-2,40207;-1,51537;-0,794355;-1,80136;;;;;BLINK_TWICE
2,02402E+14;20240204_04:21:33.061;1707060093061;-0,443657;0,109511;0,787793;-0,340365;;;;;BLINK_TWICE
2,02402E+14;20240204_04:21:33.077;1707060093077;2,83275;3,48585;4,82691;2,59736;;;;;BLINK_TWICE
2,02402E+14;20240204_04:21:33.094;1707060093094;3,75883;5,22513;5,57489;4,15779;;;;;BLINK_TWICE
2,02402E+14;20240204_04:21:33.111;1707060093111;3,75101;6,23813;6,34951;5,77305;;;;;BLINK_TWICE
2,02402E+14;20240204_04:21:33.127;1707060093127;7,04647;8,35055;8,93151;6,85021;;;;;BLINK_TWICE
2,02402E+14;20240204_04:21:33.134;1707060093134;8,33836;8,26093;8,86174;6,90598;;;;;BLINK_TWICE
2,02402E+14;20240204_04:21:33.143;1707060093143;8,92873;8,28656;8,82015;7,09868;;;;;BLINK_TWICE
2,02402E+14;20240204_04:21:33.152;1707060093152;9,12836;8,37241;8,77918;7,34545;;;;;BLINK_TWICE
2,02402E+14;20240204_04:21:33.161;1707060093161;0.000106344;9,47994;9,92706;8,66028;;;;;BLINK_TWICE
2,02402E+14;20240204_04:21:33.168;1707060093168;0.000106344;9,47994;9,92706;8,66028;;;;;BLINK_TWICE
2,02402E+14;20240204_04:21:33.178;1707060093178;0.000121692;0.000100001;0.000110874;9,99537;;;;;BLINK_TWICE
2,02402E+14;20240204_04:21:33.194;1707060093194;0.000110761;9,51073;0,85465;9,79042;;;;;BLINK_TWICE
2,02402E+14;20240204_04:21:33.202;1707060093202;0.00011959;9,12464;9,63279;9,85282;;;;;BLINK_TWICE
2,02402E+14;20240204_04:21:33.210;1707060093210;0.00011959;9,10061;9,63279;9,85282;;;;;BLINK_TWICE
2,02402E+14;20240204_04:21:33.219;1707060093219;0.000122251;9,69511;9,28402;9,89661;;;;;BLINK_TWICE
2,02402E+14;20240204_04:21:33.226;1707060093226;0.000118582;0.000101081;9,38882;0.000103823;;;;;BLINK_TWICE
2,02402E+14;20240204_04:21:33.236;1707060093236;0.000113063;8,52162;8,32574;8,81697;;;;;BLINK_TWICE
2,02402E+14;20240204_04:21:33.243;1707060093243;0.000113063;8,52162;8,32574;8,81697;;;;;BLINK_TWICE
2,02402E+14;20240204_04:21:33.252;1707060093252;0,09568;6,81142;6,81492;7,84827;;;;;BLINK_TWICE
2,02402E+14;20240204_04:21:33.260;1707060093260;0,09568;6,81142;6,81492;7,84827;;;;;BLINK_TWICE
2,02402E+14;20240204_04:21:33.268;1707060093268;0,94698;5,71765;6,40634;7,47809;;;;;BLINK_TWICE
2,02402E+14;20240204_04:21:33.276;1707060093276;0,94698;5,71765;6,40634;7,47809;;;;;BLINK_TWICE
2,02402E+14;20240204_04:21:33.285;1707060093285;7,97627;4,53135;5,18865;6,70529;;;;;BLINK_TWICE
2,02402E+14;20240204_04:21:33.294;1707060093294;7,97627;4,53135;5,18865;6,70529;;;;;BLINK_TWICE
2,02402E+14;20240204_04:21:33.302;1707060093302;6,47015;4,08564;3,16654;5,16563;;;;;BLINK_TWICE
2,02402E+14;20240204_04:21:33.311;1707060093311;3,47506;2,06044;3,84913;3,49115;;;;;BLINK_TWICE
2,02402E+14;20240204_04:21:33.319;1707060093319;3,47506;2,06044;3,84913;3,49115;;;;;BLINK_TWICE
2,02402E+14;20240204_04:21:33.326;1707060093326;0,40702;2,22147;2,56197;3,05212;;;;;BLINK_TWICE
2,02402E+14;20240204_04:21:33.335;1707060093335;0,40702;2,22147;2,56197;3,05212;;;;;BLINK_TWICE
2,02402E+14;20240204_04:21:33.344;1707060093344;1,81562;0,01279;1,56803;1,93023;;;;;BLINK_TWICE
2,02402E+14;20240204_04:21:33.352;1707060093352;1,81562;0,01279;1,56803;1,93023;;;;;BLINK_TWICE
2,02402E+14;20240204_04:21:33.361;1707060093361;0,665827;-0,0933998;0,603047;0,786168;;;;;BLINK_TWICE
2,02402E+14;20240204_04:21:33.369;1707060093369;0,297632;-0,793792;0,0518267;0,023839;;;;;BLINK_TWICE
2,02402E+14;20240204_04:21:33.377;1707060093377;-0,533216;-1,51356;-0,745075;-0,111376;;;;;BLINK_TWICE
2,02402E+14;20240204_04:21:33.386;1707060093386;-2,22909;-1,81665;-1,82504;-0,943675;;;;;BLINK_TWICE
2,02402E+14;20240204_04:21:33.394;1707060093394;-2,22909;-1,81665;-1,82504;-0,943675;;;;;BLINK_TWICE
2,02402E+14;20240204_04:21:33.403;1707060093403;-2,85152;-2,57786;-2,89164;-2,08362;;;;;BLINK_TWICE
2,02402E+14;20240204_04:21:33.411;1707060093411;-2,85152;-2,57786;-2,89164;-2,08362;;;;;BLINK_TWICE
2,02402E+14;20240204_04:21:33.420;1707060093420;-6,58369;-5,00298;-5,49007;-4,66344;;;;;BLINK_TWICE
2,02402E+14;20240204_04:21:33.427;1707060093427;-6,58369;-5,00298;-5,49007;-4,66344;;;;;BLINK_TWICE
2,02402E+14;20240204_04:21:33.436;1707060093436;-9,80028;-9,68244;-9,20144;-8,70855;;;;;BLINK_TWICE
2,02402E+14;20240204_04:21:33.444;1707060093444;-9,80028;-9,68244;-9,20144;-8,70855;;;;;BLINK_TWICE
2,02402E+14;20240204_04:21:33.452;1707060093452;-0.000124866;-0.000122086;-0.000112714;-0.000104688;;;;;BLINK_TWICE
2,02402E+14;20240204_04:21:33.461;1707060093461;-0.000137816;-0.000132519;-0.000125385;-0.000113337;;;;;BLINK_TWICE
2,02402E+14;20240204_04:21:33.469;1707060093469;-0.000137816;-0.000132519;-0.000125385;-0.000113337;;;;;BLINK_TWICE
2,02402E+14;20240204_04:21:33.478;1707060093478;-0.000144718;-0.000125583;-0.000125634;-0.000113064;;;;;BLINK_TWICE
2,02402E+14;20240204_04:21:33.485;1707060093485;-0.000144718;-0.000125583;-0.000125634;-0.000113064;;;;;BLINK_TWICE
2,02402E+14;20240204_04:21:33.493;1707060093493;-0.00012951;-0.000114205;-0.000122592;-0.000106154;;;;;BLINK_TWICE
2,02402E+14;20240204_04:21:33.503;1707060093503;-0.00012951;-0.000114205;-0.000115329;-0.000106154;;;;;BLINK_TWICE
2,02402E+14;20240204_04:21:33.511;1707060093511;-9,96165;-9,40271;-0.000104463;-9,59832;;;;;BLINK_TWICE
2,02402E+14;20240204_04:21:33.519;1707060093519;-9,90869;-9,50855;-9,90673;-9,53571;;;;;BLINK_TWICE
2,02402E+14;20240204_04:21:33.527;1707060093527;-9,90869;-9,50855;-9,90673;-9,53571;;;;;BLINK_TWICE
2,02402E+14;20240204_04:21:33.536;1707060093536;-0.000109642;-9,80667;-9,37861;-9,59243;;;;;BLINK_TWICE
2,02402E+14;20240204_04:21:33.544;1707060093544;-0.000116109;-9,80821;-8,91902;-0,92447;;;;;BLINK_TWICE
2,02402E+14;20240204_04:21:33.553;1707060093553;-0.00010037;-8,02025;-7,31251;-7,38693;;;;;BLINK_TWICE
2,02402E+14;20240204_04:21:33.561;1707060093561;-8,99375;-7,12132;-7,31251;-6,34777;;;;;BLINK_TWICE
2,02402E+14;20240204_04:21:33.569;1707060093569;-7,76551;-6,54145;-6,80072;-6,14079;;;;;BLINK_TWICE
2,02402E+14;20240204_04:21:33.578;1707060093578;-7,76551;-6,54145;-6,80072;-6,14079;;;;;BLINK_TWICE
2,02402E+14;20240204_04:21:33.586;1707060093586;-6,06822;-5,53015;-5,85826;-5,90108;;;;;BLINK_TWICE
2,02402E+14;20240204_04:21:33.595;1707060093595;-5,28243;-4,57495;-4,26901;-5,19715;;;;;BLINK_TWICE
2,02402E+14;20240204_04:21:33.611;1707060093611;-5,79572;-3,87054;-3,23398;-0,37224;;;;;BLINK_TWICE
2,02402E+14;20240204_04:21:33.619;1707060093619;-5,79572;-3,87054;-3,23398;-0,37224;;;;;BLINK_TWICE
2,02402E+14;20240204_04:21:33.628;1707060093628;-0,39579;-3,45059;-1,60682;-2,40463;;;;;BLINK_TWICE
2,02402E+14;20240204_04:21:33.635;1707060093635;-0,39579;-3,45059;-1,60682;-2,40463;;;;;BLINK_TWICE
2,02402E+14;20240204_04:21:33.645;1707060093645;-0,28681;-2,74211;-0,057823;-1,33023;;;;;BLINK_TWICE
2,02402E+14;20240204_04:21:33.652;1707060093652;-0,28681;-2,74211;-0,057823;-1,33023;;;;;BLINK_TWICE
2,02402E+14;20240204_04:21:33.661;1707060093661;0,296306;-0,637017;1,79135;0,517218;;;;;BLINK_TWICE
2,02402E+14;20240204_04:21:33.670;1707060093670;2,92176;0,20253;3,93883;0,22823;;;;;BLINK_TWICE
2,02402E+14;20240204_04:21:33.678;1707060093678;5,32076;0,54596;5,68313;4,16173;;;;;BLINK_TWICE
2,02402E+14;20240204_04:21:33.685;1707060093685;7,73772;8,88056;8,32317;7,24087;;;;;BLINK_TWICE
2,02402E+14;20240204_04:21:33.695;1707060093695;7,73772;8,88056;8,32317;7,24087;;;;;BLINK_TWICE
2,02402E+14;20240204_04:21:33.703;1707060093703;8,08983;9,28239;8,95142;7,93297;;;;;BLINK_TWICE
2,02402E+14;20240204_04:21:33.711;1707060093711;0,82375;0,95572;8,83268;7,88374;;;;;BLINK_TWICE
2,02402E+14;20240204_04:21:33.719;1707060093719;0.000105004;9,39552;0.0001162;8,55592;;;;;BLINK_TWICE
2,02402E+14;20240204_04:21:33.728;1707060093728;0.000116064;0.000102799;0.000127937;8,98953;;;;;BLINK_TWICE
2,02402E+14;20240204_04:21:33.736;1707060093736;0.000119949;0.000110028;0.000136122;9,37037;;;;;BLINK_TWICE
2,02402E+14;20240204_04:21:33.745;1707060093745;0.000122851;0.000113924;0.000136903;0.000101036;;;;;BLINK_TWICE
2,02402E+14;20240204_04:21:33.752;1707060093752;0.000122851;0.000113924;0.000136903;0.000101036;;;;;BLINK_TWICE
2,02402E+14;20240204_04:21:33.762;1707060093762;0.000132638;0.000133493;0.000132017;0.000115489;;;;;BLINK_TWICE
2,02402E+14;20240204_04:21:33.769;1707060093769;0.000132638;0.000133493;0.000132017;0.000115489;;;;;BLINK_TWICE
2,02402E+14;20240204_04:21:33.777;1707060093777;0.000125841;0.000123854;0.000129789;0.000109147;;;;;BLINK_TWICE
2,02402E+14;20240204_04:21:33.785;1707060093785;0.000125841;0.000123854;0.000129789;0.000109147;;;;;BLINK_TWICE
2,02402E+14;20240204_04:21:33.795;1707060093795;0.000106875;0.000121033;0.000111548;0.000108505;;;;;BLINK_TWICE
2,02402E+14;20240204_04:21:33.802;1707060093802;0.000109182;0.000117512;0.000111548;0.000106465;;;;;BLINK_TWICE
2,02402E+14;20240204_04:21:33.811;1707060093811;0.000103994;0.000112636;9,62254;9,97795;;;;;BLINK_TWICE
2,02402E+14;20240204_04:21:33.820;1707060093820;0.000102926;9,59652;9,62254;7,75412;;;;;BLINK_TWICE
2,02402E+14;20240204_04:21:33.828;1707060093828;0.000102926;9,59652;9,40003;7,75412;;;;;BLINK_TWICE
2,02402E+14;20240204_04:21:33.837;1707060093837;0.000107297;9,29497;9,40003;7,75412;;;;;BLINK_TWICE
2,02402E+14;20240204_04:21:33.844;1707060093844;0.000101463;9,21529;8,17366;6,80867;;;;;BLINK_TWICE
2,02402E+14;20240204_04:21:33.852;1707060093852;6,91977;7,67235;5,86114;5,88957;;;;;BLINK_TWICE
2,02402E+14;20240204_04:21:33.860;1707060093860;6,91977;7,67235;5,86114;5,88957;;;;;BLINK_TWICE
2,02402E+14;20240204_04:21:33.870;1707060093870;5,14021;7,19328;4,76329;5,60802;;;;;BLINK_TWICE
2,02402E+14;20240204_04:21:33.878;1707060093878;0,41264;6,36188;3,28422;4,02398;;;;;BLINK_TWICE
2,02402E+14;20240204_04:21:33.885;1707060093885;3,33458;0,05036;3,28422;4,02398;;;;;BLINK_TWICE
2,02402E+14;20240204_04:21:33.894;1707060093894;2,44083;0,29551;3,00389;3,26057;;;;;BLINK_TWICE
2,02402E+14;20240204_04:21:33.902;1707060093902;2,44083;0,29551;3,00389;3,26057;;;;;BLINK_TWICE
2,02402E+14;20240204_04:21:33.911;1707060093911;2,27757;2,98918;1,71105;3,02892;;;;;BLINK_TWICE
2,02402E+14;20240204_04:21:33.920;1707060093920;2,27757;2,98918;1,71105;3,02892;;;;;BLINK_TWICE
2,02402E+14;20240204_04:21:33.928;1707060093928;0,956983;1,72337;1,34018;1,76721;;;;;BLINK_TWICE
2,02402E+14;20240204_04:21:33.935;1707060093935;0,956983;1,72337;1,34018;1,76721;;;;;BLINK_TWICE
2,02402E+14;20240204_04:21:33.945;1707060093945;0,130262;0,350286;1,36259;1,05512;;;;;BLINK_TWICE
2,02402E+14;20240204_04:21:33.953;1707060093953;-0,258348;0,301572;0,751166;0,748561;;;;;BLINK_TWICE
2,02402E+14;20240204_04:21:33.961;1707060093961;-0,880241;-0,0588203;-0,474416;0,279936;;;;;BLINK_TWICE
2,02402E+14;20240204_04:21:33.969;1707060093969;-0,974048;-0,498267;-0,665824;0,00066415;;;;;BLINK_TWICE
2,02402E+14;20240204_04:21:33.978;1707060093978;-0,953245;-0,465148;-0,275948;0,0294095;;;;;BLINK_TWICE
2,02402E+14;20240204_04:21:33.987;1707060093987;-0,280688;-0,687179;-0,872421;0,0505841;;;;;BLINK_TWICE
2,02402E+14;20240204_04:21:33.994;1707060093994;-0,280688;-0,687179;-0,872421;0,0505841;;;;;BLINK_TWICE
2,02402E+14;20240204_04:21:34.004;1707060094004;-0,0960263;-0,779553;-0,21135;0,606271;;;;;BLINK_TWICE
2,02402E+14;20240204_04:21:34.011;1707060094011;-0,0960263;-0,779553;-0,21135;0,606271;;;;;BLINK_TWICE
2,02402E+14;20240204_04:21:34.020;1707060094020;-0,479475;-0,919883;-1,42665;1,03619;;;;;BLINK_TWICE
2,02402E+14;20240204_04:21:34.028;1707060094028;-0,479475;-0,919883;-1,42665;1,03619;;;;;BLINK_TWICE
2,02402E+14;20240204_04:21:34.037;1707060094037;0,041272;-1,00366;-0,0561623;0,676802;;;;;BLINK_TWICE
2,02402E+14;20240204_04:21:34.045;1707060094045;0,552321;-1,22478;-1,49924;0,00531061;;;;;BLINK_TWICE
2,02402E+14;20240204_04:21:34.052;1707060094052;0,552321;-1,22478;-1,49924;0,00531061;;;;;BLINK_TWICE
2,02402E+14;20240204_04:21:34.061;1707060094061;0,20132;0,0293123;-0,358214;1,08295;;;;;BLINK_TWICE
2,02402E+14;20240204_04:21:34.069;1707060094069;0,20132;0,0293123;-0,358214;1,08295;;;;;BLINK_TWICE
2,02402E+14;20240204_04:21:34.078;1707060094078;0,982765;-0,12604;-2,03273;0,0451436;;;;;BLINK_TWICE
2,02402E+14;20240204_04:21:34.087;1707060094087;0,982765;-0,12604;-2,03273;0,0451436;;;;;RELAX
2,02402E+14;20240204_04:21:34.095;1707060094095;-0,0010168;-1,66627;-2,93353;0,505001;;;;;RELAX
2,02402E+14;20240204_04:21:34.103;1707060094103;-0,0010168;-1,66627;-2,93353;0,505001;;;;;RELAX
2,02402E+14;20240204_04:21:34.112;1707060094112;0,925056;-1,05869;-1,91891;0,246697;;;;;RELAX
2,02402E+14;20240204_04:21:34.120;1707060094120;0,00524901;-0,153276;-0,059961;0,236446;;;;;RELAX
2,02402E+14;20240204_04:21:34.127;1707060094127;0,00524901;-0,153276;-0,059961;0,236446;;;;;RELAX
2,02402E+14;20240204_04:21:34.136;1707060094136;-0,0838908;-0,573847;-0,057119;-0,278913;;;;;RELAX
2,02402E+14;20240204_04:21:34.144;1707060094144;0,060482;-0,909613;-0,587316;-0,306763;;;;;RELAX
2,02402E+14;20240204_04:21:34.154;1707060094154;-0,968068;-0,260386;-1,09133;-0,310341;;;;;RELAX
2,02402E+14;20240204_04:21:34.162;1707060094162;-0,968068;-0,260386;-1,09133;-0,310341;;;;;RELAX
2,02402E+14;20240204_04:21:34.170;1707060094170;-1,05285;-1,48469;-2,30479;-0,682377;;;;;RELAX
2,02402E+14;20240204_04:21:34.178;1707060094178;-1,46584;-1,26476;-2,84508;-1,02832;;;;;RELAX
2,02402E+14;20240204_04:21:34.186;1707060094186;-0,18515;-1,29201;-3,43465;-0,996057;;;;;RELAX
2,02402E+14;20240204_04:21:34.196;1707060094196;-2,25902;-2,20108;-2,28506;-1,22567;;;;;RELAX
2,02402E+14;20240204_04:21:34.202;1707060094202;-2,25902;-2,20108;-2,28506;-1,22567;;;;;RELAX
2,02402E+14;20240204_04:21:34.212;1707060094212;-2,15679;-1,52948;-1,85277;-0,807849;;;;;RELAX
2,02402E+14;20240204_04:21:34.219;1707060094219;-2,15679;-1,52948;-1,85277;-0,807849;;;;;RELAX
2,02402E+14;20240204_04:21:34.228;1707060094228;-1,77294;-1,56094;-1,35626;-1,31465;;;;;RELAX
2,02402E+14;20240204_04:21:34.237;1707060094237;-1,77294;-1,56094;-1,35626;-1,31465;;;;;RELAX
2,02402E+14;20240204_04:21:34.245;1707060094245;-0,01918;-2,54538;-0,442596;-2,64252;;;;;RELAX
2,02402E+14;20240204_04:21:34.253;1707060094253;-0,01918;-2,54538;-0,442596;-2,64252;;;;;RELAX
2,02402E+14;20240204_04:21:34.262;1707060094262;-0,19507;-3,23223;-1,47997;-2,96103;;;;;RELAX
2,02402E+14;20240204_04:21:34.269;1707060094269;-0,21404;-3,23223;-1,83029;-2,64299;;;;;RELAX
2,02402E+14;20240204_04:21:34.278;1707060094278;-0,19609;-2,13471;-2,37019;-2,30335;;;;;RELAX
2,02402E+14;20240204_04:21:34.286;1707060094286;-2,94752;-2,60854;-1,91475;-2,36159;;;;;RELAX
2,02402E+14;20240204_04:21:34.295;1707060094295;-2,94752;-2,60854;-1,91475;-2,36159;;;;;RELAX
2,02402E+14;20240204_04:21:34.304;1707060094304;-0,22583;-2,48469;-1,53528;-1,91527;;;;;RELAX
2,02402E+14;20240204_04:21:34.311;1707060094311;-0,22583;-2,48469;-1,53528;-1,91527;;;;;RELAX
2,02402E+14;20240204_04:21:34.321;1707060094321;-1,67147;-2,27259;-0,954137;-1,44837;;;;;RELAX
2,02402E+14;20240204_04:21:34.329;1707060094329;-1,67147;-2,27259;-0,954137;-1,44837;;;;;RELAX
2,02402E+14;20240204_04:21:34.337;1707060094337;-0,900911;-1,15604;-0,257234;-0,886364;;;;;RELAX
2,02402E+14;20240204_04:21:34.345;1707060094345;-1,43271;-1,69925;-0,921889;-1,58055;;;;;RELAX
2,02402E+14;20240204_04:21:34.353;1707060094353;-1,43271;-1,69925;-0,921889;-1,58055;;;;;RELAX
2,02402E+14;20240204_04:21:34.363;1707060094363;-2,59502;-2,47567;-2,23788;-2,62138;;;;;RELAX
2,02402E+14;20240204_04:21:34.379;1707060094379;-0,922288;-1,77995;-0,795813;-1,62755;;;;;RELAX
2,02402E+14;20240204_04:21:34.386;1707060094386;-0,922288;-1,77995;-0,795813;-1,62755;;;;;RELAX
2,02402E+14;20240204_04:21:34.396;1707060094396;-1,26505;-1,48615;-1,52419;-1,45082;;;;;RELAX
2,02402E+14;20240204_04:21:34.403;1707060094403;-1,26505;-1,48615;-1,52419;-1,45082;;;;;RELAX
2,02402E+14;20240204_04:21:34.411;1707060094411;-1,64396;-1,01027;-0,880859;-1,35952;;;;;RELAX
2,02402E+14;20240204_04:21:34.421;1707060094421;-1,75276;-2,23468;-1,58944;-2,00936;;;;;RELAX
2,02402E+14;20240204_04:21:34.429;1707060094429;-1,77443;-2,54387;-2,00519;-2,32814;;;;;RELAX
2,02402E+14;20240204_04:21:34.437;1707060094437;-3,67489;-0,26325;-1,88926;-2,37321;;;;;RELAX
2,02402E+14;20240204_04:21:34.445;1707060094445;-3,67489;-0,26325;-1,88926;-2,37321;;;;;RELAX
2,02402E+14;20240204_04:21:34.454;1707060094454;-1,96372;-1,41655;-1,38499;-1,95107;;;;;RELAX
2,02402E+14;20240204_04:21:34.462;1707060094462;-1,96372;-1,41655;-1,38499;-1,95107;;;;;RELAX
2,02402E+14;20240204_04:21:34.470;1707060094470;-1,97592;-1,16941;-2,08389;-1,70339;;;;;RELAX
2,02402E+14;20240204_04:21:34.479;1707060094479;-1,78268;-1,47949;-1,99789;-1,55893;;;;;RELAX
2,02402E+14;20240204_04:21:34.487;1707060094487;-1,72439;-1,54827;-1,23421;-1,68774;;;;;RELAX
2,02402E+14;20240204_04:21:34.495;1707060094495;-2,67979;-2,14309;-1,31589;-2,27368;;;;;RELAX
2,02402E+14;20240204_04:21:34.504;1707060094504;-3,66426;-2,80893;-1,59592;-2,91514;;;;;RELAX
2,02402E+14;20240204_04:21:34.512;1707060094512;-2,19899;-1,42988;-1,17605;-1,73674;;;;;RELAX
2,02402E+14;20240204_04:21:34.520;1707060094520;-2,19899;-1,42988;-1,17605;-1,73674;;;;;RELAX
2,02402E+14;20240204_04:21:34.528;1707060094528;-2,32068;-1,05299;-0,551992;-1,55579;;;;;RELAX
2,02402E+14;20240204_04:21:34.536;1707060094536;-2,32068;-1,05299;-0,551992;-1,55579;;;;;RELAX
2,02402E+14;20240204_04:21:34.545;1707060094545;-0,15668;-0,087041;-0,286173;-1,26779;;;;;RELAX
2,02402E+14;20240204_04:21:34.553;1707060094553;-2,42952;-1,19751;-0,286173;-1,54668;;;;;RELAX
2,02402E+14;20240204_04:21:34.562;1707060094562;-3,12386;-1,30175;-2,22261;-1,80728;;;;;RELAX
2,02402E+14;20240204_04:21:34.571;1707060094571;-1,70679;-0,478791;-0,782135;-1,52988;;;;;RELAX
2,02402E+14;20240204_04:21:34.579;1707060094579;-1,70679;-0,478791;-0,782135;-0,885999;;;;;RELAX
2,02402E+14;20240204_04:21:34.587;1707060094587;-0,277053;-0,410472;-0,818535;-0,523092;;;;;RELAX
2,02402E+14;20240204_04:21:34.595;1707060094595;-0,277053;-0,410472;-0,818535;-0,523092;;;;;RELAX
2,02402E+14;20240204_04:21:34.603;1707060094603;-1,11323;-0,376764;-1,59182;-0,631779;;;;;RELAX
2,02402E+14;20240204_04:21:34.613;1707060094613;-2,26312;-0,897187;-2,11971;-0,095798;;;;;RELAX
2,02402E+14;20240204_04:21:34.621;1707060094621;-1,93315;-0,904359;-1,69964;-0,10941;;;;;RELAX
2,02402E+14;20240204_04:21:34.628;1707060094628;-1,80558;-0,724702;-1,35297;-0,992184;;;;;RELAX
2,02402E+14;20240204_04:21:34.637;1707060094637;-1,59821;-0,135705;-1,87777;-0,832168;;;;;RELAX
2,02402E+14;20240204_04:21:34.646;1707060094646;-1,48072;-0,679672;-1,91298;-1,17402;;;;;RELAX
2,02402E+14;20240204_04:21:34.655;1707060094655;0,493259;-0,178529;-0,009554;-0,940328;;;;;RELAX
2,02402E+14;20240204_04:21:34.671;1707060094671;0,230308;0,0193706;-0,912838;-0,825769;;;;;RELAX
2,02402E+14;20240204_04:21:34.679;1707060094679;-2,64147;-1,38865;-2,17893;-0,18961;;;;;RELAX
2,02402E+14;20240204_04:21:34.687;1707060094687;-2,91093;-1,64204;-1,75534;-1,30308;;;;;RELAX
2,02402E+14;20240204_04:21:34.696;1707060094696;-1,66192;-1,82979;-1,04149;-1,09557;;;;;RELAX
2,02402E+14;20240204_04:21:34.704;1707060094704;-0,068673;-0,01144;-0,739236;-1,42647;;;;;RELAX
2,02402E+14;20240204_04:21:34.711;1707060094711;-0,068673;-0,01144;-0,739236;-1,42647;;;;;RELAX
2,02402E+14;20240204_04:21:34.721;1707060094721;-1,43286;-0,939979;-1,00464;-1,37752;;;;;RELAX
2,02402E+14;20240204_04:21:34.728;1707060094728;-1,25272;-0,436764;-0,664308;-0,672068;;;;;RELAX
2,02402E+14;20240204_04:21:34.737;1707060094737;-1,07571;-0,528085;-0,314681;-0,121238;;;;;RELAX
2,02402E+14;20240204_04:21:34.745;1707060094745;-1,61978;-0,831569;-0,612789;-0,173601;;;;;RELAX
2,02402E+14;20240204_04:21:34.755;1707060094755;-1,41448;-1,47556;-0,642749;-1,66251;;;;;RELAX
2,02402E+14;20240204_04:21:34.762;1707060094762;-1,41448;-1,47556;-0,642749;-1,66251;;;;;RELAX
2,02402E+14;20240204_04:21:34.771;1707060094771;0,0392155;-0,595824;0,0525447;-0,397081;;;;;RELAX
2,02402E+14;20240204_04:21:34.779;1707060094779;0,0392155;-0,595824;0,0525447;-0,397081;;;;;RELAX
2,02402E+14;20240204_04:21:34.787;1707060094787;0,935599;0,429289;1,46156;0,013941;;;;;RELAX
2,02402E+14;20240204_04:21:34.795;1707060094795;0,879246;0,293907;1,01956;0,543723;;;;;RELAX
2,02402E+14;20240204_04:21:34.804;1707060094804;0,877469;0,0189314;0,394377;0,368716;;;;;RELAX
2,02402E+14;20240204_04:21:34.812;1707060094812;1,73035;1,35424;0,445754;1,95149;;;;;RELAX
2,02402E+14;20240204_04:21:34.821;1707060094821;1,73035;1,35424;0,445754;1,95149;;;;;RELAX
2,02402E+14;20240204_04:21:34.828;1707060094828;2,32207;1,59329;1,14587;0,22025;;;;;RELAX
2,02402E+14;20240204_04:21:34.838;1707060094838;2,32207;1,55395;1,68903;1,94912;;;;;RELAX
2,02402E+14;20240204_04:21:34.845;1707060094845;4,08094;2,10129;1,44139;2,71765;;;;;RELAX
2,02402E+14;20240204_04:21:34.854;1707060094854;3,18571;1,89397;0,14968;2,92364;;;;;RELAX
2,02402E+14;20240204_04:21:34.862;1707060094862;3,18571;1,89397;0,14968;2,92364;;;;;RELAX
2,02402E+14;20240204_04:21:34.870;1707060094870;2,91543;1,04697;1,34947;1,92458;;;;;RELAX
2,02402E+14;20240204_04:21:34.878;1707060094878;3,66776;0,720175;1,47549;1,64458;;;;;RELAX
2,02402E+14;20240204_04:21:34.888;1707060094888;3,81649;1,79827;1,02026;2,52369;;;;;RELAX
2,02402E+14;20240204_04:21:34.896;1707060094896;3,81649;1,79827;1,02026;2,52369;;;;;RELAX
2,02402E+14;20240204_04:21:34.904;1707060094904;3,33887;1,32111;1,40981;2,31399;;;;;RELAX
2,02402E+14;20240204_04:21:34.912;1707060094912;3,33887;1,32111;1,40981;2,31399;;;;;RELAX
2,02402E+14;20240204_04:21:34.921;1707060094921;3,44246;0,17391;1,20966;0,27195;;;;;RELAX
2,02402E+14;20240204_04:21:34.929;1707060094929;3,44246;0,17391;1,20966;0,27195;;;;;RELAX
2,02402E+14;20240204_04:21:34.938;1707060094938;1,82472;0,658939;0,905685;1,32404;;;;;RELAX
2,02402E+14;20240204_04:21:34.945;1707060094945;0,953889;0,983352;0,078482;1,16287;;;;;RELAX
2,02402E+14;20240204_04:21:34.953;1707060094953;0,953889;0,983352;0,078482;1,16287;;;;;RELAX
2,02402E+14;20240204_04:21:34.962;1707060094962;1,98953;1,24808;-0,500635;1,86938;;;;;RELAX
2,02402E+14;20240204_04:21:34.971;1707060094971;1,98953;1,24808;-0,500635;1,86938;;;;;RELAX
2,02402E+14;20240204_04:21:34.979;1707060094979;0,846306;1,26433;0,647316;1,55355;;;;;RELAX
2,02402E+14;20240204_04:21:34.988;1707060094988;0,846306;1,26433;0,647316;1,55355;;;;;RELAX
2,02402E+14;20240204_04:21:34.996;1707060094996;0,693874;0,660538;-0,178417;0,877643;;;;;RELAX
2,02402E+14;20240204_04:21:35.005;1707060095005;1,02955;0,012327;-0,610583;0,842038;;;;;RELAX
2,02402E+14;20240204_04:21:35.013;1707060095013;0,382312;-0,450369;-0,072635;0,243107;;;;;RELAX
2,02402E+14;20240204_04:21:35.022;1707060095022;-0,151852;-0,753677;-0,241215;-0,475296;;;;;RELAX
2,02402E+14;20240204_04:21:35.028;1707060095028;-0,151852;-0,753677;-0,241215;-0,475296;;;;;RELAX
2,02402E+14;20240204_04:21:35.037;1707060095037;-0,520441;-0,072788;-0,631305;-0,502223;;;;;RELAX
2,02402E+14;20240204_04:21:35.046;1707060095046;-1,49109;-0,0852522;-1,22154;-0,453661;;;;;RELAX
2,02402E+14;20240204_04:21:35.055;1707060095055;-1,17167;-0,385641;-0,078821;-0,799189;;;;;RELAX
2,02402E+14;20240204_04:21:35.063;1707060095063;-0,051504;-0,580657;-0,627732;-0,914438;;;;;RELAX
2,02402E+14;20240204_04:21:35.070;1707060095070;-0,051504;-0,580657;-0,627732;-0,914438;;;;;RELAX
2,02402E+14;20240204_04:21:35.080;1707060095080;0,242318;-0,580657;-0,704269;-0,318783;;;;;RELAX
2,02402E+14;20240204_04:21:35.087;1707060095087;0,722216;0,322855;-0,0028943;-0,192048;;;;;RELAX
2,02402E+14;20240204_04:21:35.096;1707060095096;-0,752203;-0,876836;-0,288636;-0,551552;;;;;RELAX
2,02402E+14;20240204_04:21:35.103;1707060095103;-0,752203;-0,876836;-0,288636;-0,551552;;;;;RELAX
2,02402E+14;20240204_04:21:35.113;1707060095113;-0,860571;0,0356897;-0,617571;-0,289035;;;;;RELAX
2,02402E+14;20240204_04:21:35.121;1707060095121;-0,860571;0,0356897;-0,617571;-0,289035;;;;;RELAX
2,02402E+14;20240204_04:21:35.130;1707060095130;-1,45871;-0,206131;-1,15591;-0,229614;;;;;RELAX
2,02402E+14;20240204_04:21:35.138;1707060095138;-1,17304;-0,480909;-0,893684;-0,061546;;;;;RELAX
2,02402E+14;20240204_04:21:35.146;1707060095146;-0,990148;-0,498257;-0,557904;-0,920892;;;;;RELAX
2,02402E+14;20240204_04:21:35.154;1707060095154;-0,990148;-0,244321;0,271087;-0,941383;;;;;RELAX
2,02402E+14;20240204_04:21:35.163;1707060095163;-0,0512734;0,366614;0,564974;-0,484558;;;;;RELAX
2,02402E+14;20240204_04:21:35.171;1707060095171;-0,304848;-0,050772;-0,961516;-0,134784;;;;;RELAX
2,02402E+14;20240204_04:21:35.179;1707060095179;-0,304848;-0,050772;-0,961516;-0,134784;;;;;RELAX
2,02402E+14;20240204_04:21:35.188;1707060095188;-1,06018;-0,149381;-0,777354;-0,469069;;;;;RELAX
2,02402E+14;20240204_04:21:35.195;1707060095195;-1,06018;-0,149381;-0,777354;-0,469069;;;;;RELAX
2,02402E+14;20240204_04:21:35.205;1707060095205;-1,15903;0,204744;-0,025814;-0,151756;;;;;RELAX
2,02402E+14;20240204_04:21:35.222;1707060095222;-1,66162;-0,0939691;-0,596164;-0,887529;;;;;RELAX
2,02402E+14;20240204_04:21:35.230;1707060095230;-1,63442;-0,340977;-0,016867;-0,968345;;;;;RELAX
2,02402E+14;20240204_04:21:35.237;1707060095237;-0,971464;-0,158706;0,243565;-0,777673;;;;;RELAX
2,02402E+14;20240204_04:21:35.245;1707060095245;-0,618739;-0,152171;0,385168;-0,827686;;;;;RELAX
2,02402E+14;20240204_04:21:35.254;1707060095254;-0,507396;-0,0840071;-0,297094;-0,775124;;;;;RELAX
2,02402E+14;20240204_04:21:35.264;1707060095264;-0,208184;-0,0261117;-1,03164;-0,552694;;;;;RELAX
2,02402E+14;20240204_04:21:35.270;1707060095270;-0,208184;-0,0261117;-1,03164;-0,552694;;;;;RELAX
2,02402E+14;20240204_04:21:35.279;1707060095279;0,805391;0,239354;0,673247;0,0948341;;;;;RELAX
2,02402E+14;20240204_04:21:35.288;1707060095288;0,458107;0,185517;0,047457;0,126924;;;;;RELAX
2,02402E+14;20240204_04:21:35.296;1707060095296;-1,10667;-1,01547;-0,924947;-1,63811;;;;;RELAX
2,02402E+14;20240204_04:21:35.304;1707060095304;-1,10667;-1,01547;-0,924947;-1,63811;;;;;RELAX
2,02402E+14;20240204_04:21:35.312;1707060095312;-1,80452;-1,19754;-0,966052;-1,56237;;;;;RELAX
2,02402E+14;20240204_04:21:35.322;1707060095322;-0,795601;-0,046777;-0,937432;-0,072665;;;;;RELAX
2,02402E+14;20240204_04:21:35.329;1707060095329;-0,795601;-0,046777;-0,937432;-0,072665;;;;;RELAX
2,02402E+14;20240204_04:21:35.338;1707060095338;0,0702899;1,01457;0,735872;-0,275094;;;;;RELAX
2,02402E+14;20240204_04:21:35.347;1707060095347;0,801366;1,34393;0,133726;0,166741;;;;;RELAX
2,02402E+14;20240204_04:21:35.355;1707060095355;0,434054;1,38018;0,163573;0,580011;;;;;RELAX
2,02402E+14;20240204_04:21:35.364;1707060095364;0,158302;0,967158;0,062009;0,129028;;;;;RELAX
2,02402E+14;20240204_04:21:35.371;1707060095371;0,329615;0,844198;0,313061;-0,550402;;;;;RELAX
2,02402E+14;20240204_04:21:35.379;1707060095379;0,455807;0,447006;-0,0223662;-0,334504;;;;;RELAX
2,02402E+14;20240204_04:21:35.388;1707060095388;0,455807;0,447006;-0,0223662;-0,334504;;;;;RELAX
2,02402E+14;20240204_04:21:35.396;1707060095396;-0,11737;-0,481727;-1,03141;-0,611404;;;;;RELAX
2,02402E+14;20240204_04:21:35.405;1707060095405;-0,11737;-0,481727;-1,03141;-0,611404;;;;;RELAX
2,02402E+14;20240204_04:21:35.412;1707060095412;-1,26667;-0,0936215;-1,57162;-0,689913;;;;;RELAX
2,02402E+14;20240204_04:21:35.421;1707060095421;-1,26667;-0,0936215;-1,57162;-0,689913;;;;;RELAX
2,02402E+14;20240204_04:21:35.429;1707060095429;-0,811287;1,07563;-0,884378;-0,236008;;;;;RELAX
2,02402E+14;20240204_04:21:35.439;1707060095439;0,185269;1,08474;-0,392916;0,0184891;;;;;RELAX
2,02402E+14;20240204_04:21:35.446;1707060095446;0,249659;0,595305;-0,846069;-0,212512;;;;;RELAX
2,02402E+14;20240204_04:21:35.454;1707060095454;-1,23744;0,312325;-0,14954;0,0015883;;;;;RELAX
2,02402E+14;20240204_04:21:35.462;1707060095462;-1,23744;0,312325;-0,14954;0,0015883;;;;;RELAX
2,02402E+14;20240204_04:21:35.472;1707060095472;-0,155193;0,511046;0,00199785;-0,033297;;;;;RELAX
2,02402E+14;20240204_04:21:35.480;1707060095480;-0,155193;0,511046;0,00199785;-0,033297;;;;;RELAX
2,02402E+14;20240204_04:21:35.487;1707060095487;-0,066218;-0,353056;-0,662669;0,399754;;;;;RELAX
2,02402E+14;20240204_04:21:35.496;1707060095496;-0,066218;-0,353056;-0,662669;0,399754;;;;;RELAX
2,02402E+14;20240204_04:21:35.504;1707060095504;1,76522;-0,562207;-0,598736;-0,339495;;;;;RELAX
2,02402E+14;20240204_04:21:35.514;1707060095514;0,688051;0,232307;-0,061962;-0,332983;;;;;RELAX
2,02402E+14;20240204_04:21:35.522;1707060095522;-0,277076;0,232307;-0,570855;-0,332983;;;;;RELAX
2,02402E+14;20240204_04:21:35.530;1707060095530;0,0568789;-0,0125839;-1,18471;0,355284;;;;;RELAX
2,02402E+14;20240204_04:21:35.537;1707060095537;0,0568789;-0,0125839;-1,18471;0,355284;;;;;RELAX
2,02402E+14;20240204_04:21:35.547;1707060095547;-1,52867;-0,649842;-1,31071;0,284251;;;;;RELAX
2,02402E+14;20240204_04:21:35.555;1707060095555;-1,52867;-0,649842;-1,31071;0,284251;;;;;RELAX
2,02402E+14;20240204_04:21:35.562;1707060095562;-1,68321;-0,458953;-1,05193;0,491642;;;;;RELAX
2,02402E+14;20240204_04:21:35.572;1707060095572;-1,81649;-0,556482;-0,299532;0,131611;;;;;RELAX
2,02402E+14;20240204_04:21:35.580;1707060095580;-1,34289;-0,11909;-0,145788;-0,445387;;;;;RELAX
2,02402E+14;20240204_04:21:35.588;1707060095588;-0,133159;-1,15245;0,309852;-0,434194;;;;;RELAX
2,02402E+14;20240204_04:21:35.597;1707060095597;-0,133159;-1,15245;0,309852;-0,434194;;;;;RELAX
2,02402E+14;20240204_04:21:35.605;1707060095605;-1,08061;-0,745243;-0,650599;-0,275801;;;;;RELAX
2,02402E+14;20240204_04:21:35.613;1707060095613;-1,08061;-0,745243;-0,650599;-0,275801;;;;;RELAX
2,02402E+14;20240204_04:21:35.622;1707060095622;-0,0524762;0,216976;-0,619399;0,281411;;;;;RELAX
2,02402E+14;20240204_04:21:35.629;1707060095629;-0,0524762;0,216976;-0,619399;0,281411;;;;;RELAX
2,02402E+14;20240204_04:21:35.638;1707060095638;0,00380725;0,128694;0,269057;0,355482;;;;;RELAX
2,02402E+14;20240204_04:21:35.647;1707060095647;0,365205;-0,339106;-0,0549995;0,003088;;;;;RELAX
2,02402E+14;20240204_04:21:35.654;1707060095654;0,365205;-0,339106;-0,0549995;0,003088;;;;;RELAX
2,02402E+14;20240204_04:21:35.663;1707060095663;0,365205;-0,339106;-0,0549995;0,003088;;;;;RELAX
2,02402E+14;20240204_04:21:35.671;1707060095671;-0,156618;-1,54442;-0,277823;-0,259062;;;;;RELAX
2,02402E+14;20240204_04:21:35.680;1707060095680;1,28633;-2,18815;-0,455359;0,195484;;;;;RELAX
2,02402E+14;20240204_04:21:35.688;1707060095688;1,28633;-0,14954;-0,021117;0,195484;;;;;RELAX
2,02402E+14;20240204_04:21:35.697;1707060095697;0,928399;-0,064402;0,338688;1,32816;;;;;RELAX
2,02402E+14;20240204_04:21:35.704;1707060095704;0,928399;-0,064402;0,338688;1,32816;;;;;RELAX
2,02402E+14;20240204_04:21:35.714;1707060095714;1,94488;0,005366;0,538814;2,08641;;;;;RELAX
2,02402E+14;20240204_04:21:35.722;1707060095722;1,94488;0,10168;0,980674;2,28621;;;;;RELAX
2,02402E+14;20240204_04:21:35.739;1707060095739;2,45528;1,60528;0,450397;2,46429;;;;;RELAX
2,02402E+14;20240204_04:21:35.747;1707060095747;2,06497;0,982525;0,605533;0,16818;;;;;RELAX
2,02402E+14;20240204_04:21:35.755;1707060095755;1,63785;0,0290302;0,662546;0,17456;;;;;RELAX
2,02402E+14;20240204_04:21:35.763;1707060095763;1,63785;0,0290302;0,662546;0,17456;;;;;RELAX
2,02402E+14;20240204_04:21:35.772;1707060095772;0,922113;-0,841627;1,12051;1,42114;;;;;RELAX
2,02402E+14;20240204_04:21:35.779;1707060095779;0,922113;-0,841627;1,12051;1,42114;;;;;RELAX
2,02402E+14;20240204_04:21:35.789;1707060095789;1,17855;-0,137015;-0,174684;1,39687;;;;;RELAX
2,02402E+14;20240204_04:21:35.796;1707060095796;1,17855;-0,137015;-0,174684;1,39687;;;;;RELAX
2,02402E+14;20240204_04:21:35.805;1707060095805;2,56969;1,59259;0,880915;1,83932;;;;;RELAX
2,02402E+14;20240204_04:21:35.814;1707060095814;1,41671;1,74847;0,528582;1,96624;;;;;RELAX
2,02402E+14;20240204_04:21:35.822;1707060095822;0,783072;1,47461;0,00858227;1,66536;;;;;RELAX
2,02402E+14;20240204_04:21:35.831;1707060095831;0,935418;0,746357;-0,259444;1,54322;;;;;RELAX
2,02402E+14;20240204_04:21:35.839;1707060095839;0,935418;0,746357;-0,259444;1,54322;;;;;RELAX
2,02402E+14;20240204_04:21:35.847;1707060095847;-0,752401;0,326198;-0,273244;0,509224;;;;;RELAX
2,02402E+14;20240204_04:21:35.854;1707060095854;-0,752401;0,326198;-0,273244;0,509224;;;;;RELAX
2,02402E+14;20240204_04:21:35.864;1707060095864;-1,08186;-0,537929;-0,377265;-0,0783882;;;;;RELAX
2,02402E+14;20240204_04:21:35.871;1707060095871;-1,08186;-0,537929;-0,377265;-0,0783882;;;;;RELAX
2,02402E+14;20240204_04:21:35.881;1707060095881;-1,05875;-0,860796;-0,277983;-0,333521;;;;;RELAX
2,02402E+14;20240204_04:21:35.889;1707060095889;0,601445;0,083935;0,367843;0,728399;;;;;RELAX
2,02402E+14;20240204_04:21:35.897;1707060095897;0,601445;0,083935;0,367843;0,728399;;;;;RELAX
2,02402E+14;20240204_04:21:35.905;1707060095905;1,17301;0,510284;-0,250355;0,044657;;;;;RELAX
2,02402E+14;20240204_04:21:35.914;1707060095914;1,17301;0,510284;-0,250355;0,044657;;;;;RELAX
2,02402E+14;20240204_04:21:35.921;1707060095921;1,23461;0,850504;0,414254;0,019758;;;;;RELAX
2,02402E+14;20240204_04:21:35.931;1707060095931;1,40706;0,850504;0,414254;0,019758;;;;;RELAX
2,02402E+14;20240204_04:21:35.938;1707060095938;-0,0423514;0,966239;-0,201037;0,297499;;;;;RELAX
2,02402E+14;20240204_04:21:35.946;1707060095946;-0,0423514;0,966239;-0,201037;0,297499;;;;;RELAX
2,02402E+14;20240204_04:21:35.955;1707060095955;-0,703802;0,147491;-0,658155;0,299469;;;;;RELAX
2,02402E+14;20240204_04:21:35.964;1707060095964;-1,25622;-0,045565;-0,692913;0,255559;;;;;RELAX
2,02402E+14;20240204_04:21:35.971;1707060095971;-1,25622;-0,045565;-0,692913;0,255559;;;;;RELAX
2,02402E+14;20240204_04:21:35.981;1707060095981;-0,920327;0,234827;-0,726058;0,235302;;;;;RELAX
2,02402E+14;20240204_04:21:35.989;1707060095989;0,533736;0,718543;0,360529;-0,188391;;;;;RELAX
2,02402E+14;20240204_04:21:35.996;1707060095996;0,108489;1,01531;0,553979;0,184661;;;;;RELAX
2,02402E+14;20240204_04:21:36.005;1707060096005;0,108489;1,01531;0,553979;0,184661;;;;;RELAX
2,02402E+14;20240204_04:21:36.014;1707060096014;-0,0276536;1,08224;0,164581;0,636089;;;;;RELAX
2,02402E+14;20240204_04:21:36.022;1707060096022;-0,0276536;1,08224;0,164581;0,636089;;;;;RELAX
2,02402E+14;20240204_04:21:36.030;1707060096030;-0,562907;0,247137;-0,530634;0,133241;;;;;RELAX
2,02402E+14;20240204_04:21:36.038;1707060096038;-1,32735;0,141717;0,773607;-0,301858;;;;;RELAX
2,02402E+14;20240204_04:21:36.047;1707060096047;-1,32735;0,141717;0,773607;-0,301858;;;;;RELAX
2,02402E+14;20240204_04:21:36.056;1707060096056;-1,32735;0,141717;0,773607;-0,301858;;;;;RELAX
2,02402E+14;20240204_04:21:36.064;1707060096064;-1,08738;0,378357;-0,582471;-0,469281;;;;;RELAX
2,02402E+14;20240204_04:21:36.072;1707060096072;-1,48652;0,183763;-0,529525;-0,240745;;;;;RELAX
2,02402E+14;20240204_04:21:36.080;1707060096080;-1,48652;0,183763;-0,529525;-0,240745;;;;;RELAX
2,02402E+14;20240204_04:21:36.089;1707060096089;-2,40073;-0,016902;-1,28681;-0,468904;;;;;BLINK
2,02402E+14;20240204_04:21:36.096;1707060096096;-2,40073;-0,016902;-1,28681;-0,468904;;;;;BLINK
2,02402E+14;20240204_04:21:36.105;1707060096105;-1,43855;-0,173072;-0,232906;-0,743176;;;;;BLINK
2,02402E+14;20240204_04:21:36.113;1707060096113;-1,43855;-0,173072;-0,232906;-0,743176;;;;;BLINK
2,02402E+14;20240204_04:21:36.122;1707060096122;-2,07533;-0,782174;-0,646963;-0,946268;;;;;BLINK
2,02402E+14;20240204_04:21:36.131;1707060096131;-2,04854;-1,48108;-0,609692;-1,37333;;;;;BLINK
2,02402E+14;20240204_04:21:36.138;1707060096138;-2,04854;-1,48108;-0,609692;-1,37333;;;;;BLINK
2,02402E+14;20240204_04:21:36.148;1707060096148;-0,500971;0,0664462;0,040814;-0,585821;;;;;BLINK
2,02402E+14;20240204_04:21:36.154;1707060096154;-0,500971;0,0664462;0,040814;-0,585821;;;;;BLINK
2,02402E+14;20240204_04:21:36.164;1707060096164;0,303423;0,431109;0,449147;-0,019012;;;;;BLINK
2,02402E+14;20240204_04:21:36.172;1707060096172;0,399802;0,431109;0,366959;-0,019012;;;;;BLINK
2,02402E+14;20240204_04:21:36.180;1707060096180;0,433877;-0,0197958;-0,532874;-0,920675;;;;;BLINK
2,02402E+14;20240204_04:21:36.189;1707060096189;-0,339844;-0,668706;-0,953102;-0,905253;;;;;BLINK
2,02402E+14;20240204_04:21:36.197;1707060096197;-0,097458;-0,658025;-0,291158;-0,905253;;;;;BLINK
2,02402E+14;20240204_04:21:36.206;1707060096206;-1,13059;-0,717679;-0,0656687;-0,948033;;;;;BLINK
2,02402E+14;20240204_04:21:36.213;1707060096213;-1,02052;-0,609854;-0,152488;-1,24937;;;;;BLINK
2,02402E+14;20240204_04:21:36.222;1707060096222;-0,230171;0,0785006;0,704908;-0,784311;;;;;BLINK
2,02402E+14;20240204_04:21:36.230;1707060096230;-0,230171;0,0785006;0,704908;-0,784311;;;;;BLINK
2,02402E+14;20240204_04:21:36.239;1707060096239;0,471058;0,164048;0,198783;-0,696973;;;;;BLINK
2,02402E+14;20240204_04:21:36.247;1707060096247;0,471058;0,164048;0,198783;-0,696973;;;;;BLINK
2,02402E+14;20240204_04:21:36.255;1707060096255;-0,162621;0,440521;-0,213059;-0,835645;;;;;BLINK
2,02402E+14;20240204_04:21:36.264;1707060096264;-0,774303;0,564135;-0,092029;-0,983584;;;;;BLINK
2,02402E+14;20240204_04:21:36.271;1707060096271;-0,701588;-0,299318;-0,629682;-0,13032;;;;;BLINK
2,02402E+14;20240204_04:21:36.281;1707060096281;-0,139491;-0,733984;0,0820338;-0,781082;;;;;BLINK
2,02402E+14;20240204_04:21:36.289;1707060096289;-0,139491;-0,733984;0,0820338;-0,781082;;;;;BLINK
2,02402E+14;20240204_04:21:36.298;1707060096298;-0,175311;-0,843962;-0,357187;-0,558834;;;;;BLINK
2,02402E+14;20240204_04:21:36.305;1707060096305;-0,175311;-0,843962;-0,357187;-0,558834;;;;;BLINK
2,02402E+14;20240204_04:21:36.314;1707060096314;-0,330827;0,517336;-0,592412;-0,259015;;;;;BLINK
2,02402E+14;20240204_04:21:36.322;1707060096322;0,0472515;-0,0409689;-0,871429;-0,408288;;;;;BLINK
2,02402E+14;20240204_04:21:36.331;1707060096331;0,0472515;0,458453;0,287077;0,209057;;;;;BLINK
2,02402E+14;20240204_04:21:36.339;1707060096339;0,340328;0,181459;0,548634;0,0838802;;;;;BLINK
2,02402E+14;20240204_04:21:36.347;1707060096347;0,713049;-0,227471;0,457181;-0,0926928;;;;;BLINK
2,02402E+14;20240204_04:21:36.356;1707060096356;2,21244;0,0076903;0,510708;-0,00378106;;;;;BLINK
2,02402E+14;20240204_04:21:36.364;1707060096364;2,21244;0,0076903;0,510708;-0,00378106;;;;;BLINK
2,02402E+14;20240204_04:21:36.373;1707060096373;1,27502;-0,109704;0,021793;-0,356794;;;;;BLINK
2,02402E+14;20240204_04:21:36.380;1707060096380;1,27502;-0,109704;0,021793;-0,356794;;;;;BLINK
2,02402E+14;20240204_04:21:36.389;1707060096389;-0,650478;-0,500316;0,398773;-0,293382;;;;;BLINK
2,02402E+14;20240204_04:21:36.398;1707060096398;-0,195872;-0,566052;0,292999;-0,806197;;;;;BLINK
2,02402E+14;20240204_04:21:36.406;1707060096406;0,00511517;-0,681705;-0,515882;-0,898856;;;;;BLINK
2,02402E+14;20240204_04:21:36.415;1707060096415;-1,13669;-1,04602;-1,64349;-0,014215;;;;;BLINK
2,02402E+14;20240204_04:21:36.423;1707060096423;-1,13669;-0,769067;-2,05414;-0,014215;;;;;BLINK
2,02402E+14;20240204_04:21:36.430;1707060096430;-1,13669;-0,769067;-2,05414;-0,014215;;;;;BLINK
2,02402E+14;20240204_04:21:36.439;1707060096439;0,183927;-1,34196;0,169633;-0,411207;;;;;BLINK
2,02402E+14;20240204_04:21:36.447;1707060096447;-0,312956;-0,638098;-0,419259;-0,745639;;;;;BLINK
2,02402E+14;20240204_04:21:36.455;1707060096455;-0,312956;-0,638098;-0,419259;-0,745639;;;;;BLINK
2,02402E+14;20240204_04:21:36.464;1707060096464;-2,06767;-0,925956;-1,03652;-1,12228;;;;;BLINK
2,02402E+14;20240204_04:21:36.472;1707060096472;-1,72003;-1,39703;-1,19391;-1,55365;;;;;BLINK
2,02402E+14;20240204_04:21:36.481;1707060096481;-0,889595;-1,47217;-0,988604;-1,54251;;;;;BLINK
2,02402E+14;20240204_04:21:36.488;1707060096488;0,0191182;-1,21291;-0,443481;-0,874145;;;;;BLINK
2,02402E+14;20240204_04:21:36.496;1707060096496;0,0191182;-1,21291;-0,443481;-0,874145;;;;;BLINK
2,02402E+14;20240204_04:21:36.506;1707060096506;0,418063;-1,32854;-0,334119;-0,236904;;;;;BLINK
2,02402E+14;20240204_04:21:36.514;1707060096514;0,438764;-1,81316;-0,569472;-0,280148;;;;;BLINK
2,02402E+14;20240204_04:21:36.522;1707060096522;-1,32105;-3,35147;-2,40403;-1,83231;;;;;BLINK
2,02402E+14;20240204_04:21:36.531;1707060096531;-1,32105;-3,35147;-2,40403;-1,83231;;;;;BLINK
2,02402E+14;20240204_04:21:36.540;1707060096540;-4,14267;-5,38397;-5,60287;-3,22203;;;;;BLINK
2,02402E+14;20240204_04:21:36.547;1707060096547;-4,14267;-5,38397;-5,60287;-3,22203;;;;;BLINK
2,02402E+14;20240204_04:21:36.555;1707060096555;-5,72178;-6,18453;-6,02869;-4,10833;;;;;BLINK
2,02402E+14;20240204_04:21:36.564;1707060096564;-5,52109;-6,88964;-6,58641;-5,09399;;;;;BLINK
2,02402E+14;20240204_04:21:36.572;1707060096572;-5,02853;-7,18974;-6,80575;-5,49107;;;;;BLINK
2,02402E+14;20240204_04:21:36.581;1707060096581;-5,71164;-8,57754;-0,70588;-5,79523;;;;;BLINK
2,02402E+14;20240204_04:21:36.588;1707060096588;-5,71164;-8,57754;-0,70588;-5,79523;;;;;BLINK
2,02402E+14;20240204_04:21:36.598;1707060096598;-5,37593;-7,62132;-7,19931;-5,60109;;;;;BLINK
2,02402E+14;20240204_04:21:36.605;1707060096605;-5,37593;-7,62132;-7,19931;-5,60109;;;;;BLINK
2,02402E+14;20240204_04:21:36.614;1707060096614;-5,56351;-7,17712;-7,21948;-0,57553;;;;;BLINK
2,02402E+14;20240204_04:21:36.623;1707060096623;-6,21213;-7,17712;-7,21948;-0,57553;;;;;BLINK
2,02402E+14;20240204_04:21:36.631;1707060096631;-7,19055;-7,49136;-6,97933;-6,01728;;;;;BLINK
2,02402E+14;20240204_04:21:36.640;1707060096640;-7,48609;-7,93159;-0,77698;-6,12502;;;;;BLINK
2,02402E+14;20240204_04:21:36.647;1707060096647;-7,60051;-8,28789;-8,17978;-6,56149;;;;;BLINK
2,02402E+14;20240204_04:21:36.656;1707060096656;-8,81839;-8,34544;-8,10536;-7,16432;;;;;BLINK
2,02402E+14;20240204_04:21:36.664;1707060096664;-8,81839;-8,34544;-8,10536;-7,16432;;;;;BLINK
2,02402E+14;20240204_04:21:36.673;1707060096673;-8,16067;-7,75166;-7,74065;-6,88632;;;;;BLINK
2,02402E+14;20240204_04:21:36.680;1707060096680;-8,16067;-7,75166;-7,74065;-6,88632;;;;;BLINK
2,02402E+14;20240204_04:21:36.690;1707060096690;-8,03315;-0,69493;-7,41194;-5,82348;;;;;BLINK
2,02402E+14;20240204_04:21:36.698;1707060096698;-8,44382;-7,35998;-7,77882;-6,10133;;;;;BLINK
2,02402E+14;20240204_04:21:36.706;1707060096706;-8,50049;-6,75742;-0,07197;-0,55708;;;;;BLINK
2,02402E+14;20240204_04:21:36.715;1707060096715;-8,50049;-6,75742;-0,07197;-0,55708;;;;;BLINK
2,02402E+14;20240204_04:21:36.723;1707060096723;-0,66716;-4,30092;-5,69978;-0,40935;;;;;BLINK
2,02402E+14;20240204_04:21:36.730;1707060096730;-0,61763;-3,91209;-4,59574;-3,91627;;;;;BLINK
2,02402E+14;20240204_04:21:36.738;1707060096738;-0,61763;-3,91209;-4,59574;-3,91627;;;;;BLINK
2,02402E+14;20240204_04:21:36.749;1707060096749;-4,92421;-3,36448;-0,33305;-4,40544;;;;;BLINK
2,02402E+14;20240204_04:21:36.756;1707060096756;-4,92421;-3,27603;-0,33305;-4,89382;;;;;BLINK
2,02402E+14;20240204_04:21:36.765;1707060096765;-3,30468;-0,32159;-1,64772;-5,23898;;;;;BLINK
2,02402E+14;20240204_04:21:36.772;1707060096772;-3,30468;-0,32159;-1,64772;-5,23898;;;;;BLINK
2,02402E+14;20240204_04:21:36.781;1707060096781;-1,75346;-2,01272;-1,80202;-2,88207;;;;;BLINK
2,02402E+14;20240204_04:21:36.789;1707060096789;-1,43763;-0,374179;1,02838;0,425083;;;;;BLINK
2,02402E+14;20240204_04:21:36.797;1707060096797;-1,43763;-0,374179;1,02838;0,425083;;;;;BLINK
2,02402E+14;20240204_04:21:36.806;1707060096806;4,16249;0,53762;3,57147;4,02593;;;;;BLINK
2,02402E+14;20240204_04:21:36.815;1707060096815;4,16249;0,53762;3,57147;4,02593;;;;;BLINK
2,02402E+14;20240204_04:21:36.822;1707060096822;7,01316;7,42886;6,71575;5,52157;;;;;BLINK
2,02402E+14;20240204_04:21:36.831;1707060096831;7,01316;7,42886;6,71575;5,52157;;;;;BLINK
2,02402E+14;20240204_04:21:36.840;1707060096840;0,92812;9,54448;9,73693;7,60107;;;;;BLINK
2,02402E+14;20240204_04:21:36.848;1707060096848;0.000108332;0.000107044;0.000106735;8,81732;;;;;BLINK
2,02402E+14;20240204_04:21:36.855;1707060096855;0.000108332;0.000107044;0.000106735;8,81732;;;;;BLINK
2,02402E+14;20240204_04:21:36.864;1707060096864;0.000117859;0.000115401;0.000106105;9,95427;;;;;BLINK
2,02402E+14;20240204_04:21:36.872;1707060096872;0.000120724;0.000124544;0.000108571;0.000110492;;;;;BLINK
2,02402E+14;20240204_04:21:36.881;1707060096881;0.000121742;0.000142049;0.00012752;0.000121476;;;;;BLINK
2,02402E+14;20240204_04:21:36.889;1707060096889;0.000121742;0.000142049;0.00012752;0.000121476;;;;;BLINK
2,02402E+14;20240204_04:21:36.898;1707060096898;0.000122036;0.000141414;0.000113916;0.00012274;;;;;BLINK
2,02402E+14;20240204_04:21:36.905;1707060096905;0.000122036;0.000141414;0.000113916;0.00012274;;;;;BLINK
2,02402E+14;20240204_04:21:36.915;1707060096915;0.000120839;0.000119544;0.000118353;0.000107179;;;;;BLINK
2,02402E+14;20240204_04:21:36.922;1707060096922;0.000120839;0.000119544;0.000118353;0.000107179;;;;;BLINK
2,02402E+14;20240204_04:21:36.931;1707060096931;0.000115723;0.000107358;0.000115624;8,84375;;;;;BLINK
2,02402E+14;20240204_04:21:36.940;1707060096940;0.000101623;0.000107606;0.000109615;8,40637;;;;;BLINK
2,02402E+14;20240204_04:21:36.948;1707060096948;0.000101623;0.000107606;0.000109615;8,40637;;;;;BLINK
2,02402E+14;20240204_04:21:36.956;1707060096956;0.000114323;0.000112828;0.000106919;8,78624;;;;;BLINK
2,02402E+14;20240204_04:21:36.964;1707060096964;0.000114323;0.000112828;0.000106919;8,78624;;;;;BLINK
2,02402E+14;20240204_04:21:36.972;1707060096972;0.000114402;0.00012029;0,09932;9,77796;;;;;BLINK
2,02402E+14;20240204_04:21:36.981;1707060096981;0.000114402;0.00012029;0,09932;9,77796;;;;;BLINK
2,02402E+14;20240204_04:21:36.989;1707060096989;0.000102603;0.000112056;9,32448;8,88239;;;;;BLINK
2,02402E+14;20240204_04:21:36.998;1707060096998;8,41684;7,96704;8,63777;6,85732;;;;;BLINK
2,02402E+14;20240204_04:21:37.007;1707060097007;8,41684;7,96704;8,63777;6,85732;;;;;BLINK
2,02402E+14;20240204_04:21:37.015;1707060097015;9,41025;7,47581;7,61887;6,05042;;;;;BLINK
2,02402E+14;20240204_04:21:37.022;1707060097022;9,41025;7,47581;7,61887;6,05042;;;;;BLINK
2,02402E+14;20240204_04:21:37.031;1707060097031;8,15597;7,23266;6,97947;5,95423;;;;;BLINK
2,02402E+14;20240204_04:21:37.039;1707060097039;7,86227;6,89863;6,69177;0,51688;;;;;BLINK
2,02402E+14;20240204_04:21:37.048;1707060097048;7,41588;7,38829;6,32454;5,10325;;;;;BLINK
2,02402E+14;20240204_04:21:37.056;1707060097056;7,41588;7,38829;6,32454;5,10325;;;;;BLINK
2,02402E+14;20240204_04:21:37.064;1707060097064;5,86428;7,09119;5,14365;4,75805;;;;;BLINK
2,02402E+14;20240204_04:21:37.073;1707060097073;5,86428;7,09119;5,14365;4,75805;;;;;BLINK
2,02402E+14;20240204_04:21:37.081;1707060097081;5,69648;6.53e-05;4,82822;4,75193;;;;;BLINK
2,02402E+14;20240204_04:21:37.090;1707060097090;5,43163;4,28061;5,05669;3,58756;;;;;BLINK
2,02402E+14;20240204_04:21:37.098;1707060097098;5,43163;4,28061;5,05669;3,58756;;;;;BLINK
2,02402E+14;20240204_04:21:37.107;1707060097107;3,62416;2,83481;3,74485;1,91551;;;;;BLINK
2,02402E+14;20240204_04:21:37.114;1707060097114;3,62416;2,83481;3,74485;1,91551;;;;;BLINK
2,02402E+14;20240204_04:21:37.122;1707060097122;3,42935;2,58807;1,68162;1,72761;;;;;BLINK
2,02402E+14;20240204_04:21:37.132;1707060097132;3,42935;2,58807;1,15474;1,72761;;;;;BLINK
2,02402E+14;20240204_04:21:37.140;1707060097140;0,572199;0,798252;1,01477;-0,0795358;;;;;BLINK
2,02402E+14;20240204_04:21:37.148;1707060097148;0,626497;-0,0703042;0,715421;-0,596341;;;;;BLINK
2,02402E+14;20240204_04:21:37.156;1707060097156;0,214577;-0,330137;0,174805;-0,428873;;;;;BLINK
2,02402E+14;20240204_04:21:37.164;1707060097164;-2,30309;-1,27356;-0,083034;-1,00062;;;;;BLINK
2,02402E+14;20240204_04:21:37.172;1707060097172;-2,30309;-1,80693;-1,59627;-1,59961;;;;;BLINK
2,02402E+14;20240204_04:21:37.182;1707060097182;-2,99604;-1,83374;-1,25131;-1,36612;;;;;BLINK
2,02402E+14;20240204_04:21:37.190;1707060097190;-2,99604;-1,83374;-1,25131;-1,36612;;;;;BLINK
2,02402E+14;20240204_04:21:37.197;1707060097197;-3,15903;-1,68429;-1,27733;-1,85467;;;;;BLINK
2,02402E+14;20240204_04:21:37.206;1707060097206;-3,15903;-1,68429;-1,27733;-1,85467;;;;;BLINK
2,02402E+14;20240204_04:21:37.215;1707060097215;-3,12401;-1,76018;-1,47948;-1,85467;;;;;BLINK
2,02402E+14;20240204_04:21:37.223;1707060097223;-3,10678;-3,60883;-2,27428;-2,65938;;;;;BLINK
2,02402E+14;20240204_04:21:37.231;1707060097231;-2,09308;-3,44755;-1,88255;-3,08962;;;;;BLINK
2,02402E+14;20240204_04:21:37.239;1707060097239;-1,41661;-2,71804;-1,88255;-2,76193;;;;;BLINK
2,02402E+14;20240204_04:21:37.248;1707060097248;-1,77576;-2,26202;-1,86175;-2,62231;;;;;BLINK
2,02402E+14;20240204_04:21:37.257;1707060097257;-3,79615;-2,30457;-2,24796;-2,30652;;;;;BLINK
2,02402E+14;20240204_04:21:37.264;1707060097264;-3,79615;-2,30457;-2,24796;-2,30652;;;;;BLINK
2,02402E+14;20240204_04:21:37.273;1707060097273;-5,23912;-3,46175;-1,98547;-2,99939;;;;;BLINK
2,02402E+14;20240204_04:21:37.282;1707060097282;-5,23912;-3,46175;-1,98547;-2,99939;;;;;BLINK
2,02402E+14;20240204_04:21:37.289;1707060097289;-6,45568;-3,99337;-0,28693;-3,48323;;;;;BLINK
2,02402E+14;20240204_04:21:37.298;1707060097298;-5,90361;-4,51475;-3,09993;-4,16864;;;;;BLINK
2,02402E+14;20240204_04:21:37.306;1707060097306;-5,90361;-4,51475;-3,09993;-4,16864;;;;;BLINK
2,02402E+14;20240204_04:21:37.315;1707060097315;-5,90361;-4,51475;-3,09993;-4,16864;;;;;BLINK
2,02402E+14;20240204_04:21:37.322;1707060097322;-0,38453;-4,49887;-2,83092;-3,85909;;;;;BLINK
2,02402E+14;20240204_04:21:37.332;1707060097332;-2,25544;-0,22839;-2,05182;-2,22153;;;;;BLINK
2,02402E+14;20240204_04:21:37.340;1707060097340;-1,77759;-2,83603;-0,27606;-3,11417;;;;;BLINK
2,02402E+14;20240204_04:21:37.348;1707060097348;-2,20017;-2,83603;-0,27606;-3,11417;;;;;BLINK
2,02402E+14;20240204_04:21:37.357;1707060097357;-2,20017;-2,83603;-0,27606;-3,11417;;;;;BLINK
2,02402E+14;20240204_04:21:37.366;1707060097366;-3,13731;-2,31993;-2,41942;-2,17682;;;;;BLINK
2,02402E+14;20240204_04:21:37.374;1707060097374;-3,09752;-2,89514;-2,02041;-1,95666;;;;;BLINK
2,02402E+14;20240204_04:21:37.382;1707060097382;-2,86399;-2,96388;-1,57125;-1,18904;;;;;BLINK
2,02402E+14;20240204_04:21:37.390;1707060097390;-0,119698;-0,083143;-0,305447;1,84095;;;;;BLINK
2,02402E+14;20240204_04:21:37.398;1707060097398;-0,119698;-0,083143;-0,305447;1,84095;;;;;BLINK
2,02402E+14;20240204_04:21:37.407;1707060097407;1,51711;0,482979;0,167003;0,29377;;;;;BLINK
2,02402E+14;20240204_04:21:37.416;1707060097416;2,91941;1,30476;0,251399;3,40711;;;;;BLINK
2,02402E+14;20240204_04:21:37.423;1707060097423;3,03207;0,0347421;-0,602333;2,79942;;;;;BLINK
2,02402E+14;20240204_04:21:37.431;1707060097431;3,03207;0,0347421;-0,602333;2,79942;;;;;BLINK
2,02402E+14;20240204_04:21:37.440;1707060097440;2,67305;-0,022749;-0,890307;2,38967;;;;;BLINK
2,02402E+14;20240204_04:21:37.449;1707060097449;0,24615;-0,167274;-0,182688;0,19722;;;;;BLINK
2,02402E+14;20240204_04:21:37.457;1707060097457;1,82348;-0,378738;-0,0771136;1,71351;;;;;BLINK
2,02402E+14;20240204_04:21:37.467;1707060097467;1,98929;0,125229;0,524805;0,22133;;;;;BLINK
2,02402E+14;20240204_04:21:37.483;1707060097483;1,24716;-0,923774;-0,153642;1,08965;;;;;BLINK
2,02402E+14;20240204_04:21:37.489;1707060097489;1,24716;-0,923774;-0,153642;1,08965;;;;;BLINK
2,02402E+14;20240204_04:21:37.499;1707060097499;1,87855;0,489732;0,075886;2,23723;;;;;BLINK
2,02402E+14;20240204_04:21:37.506;1707060097506;1,87855;0,489732;0,075886;2,23723;;;;;BLINK
2,02402E+14;20240204_04:21:37.515;1707060097515;2,77701;1,05763;0,0540847;2,86433;;;;;BLINK
2,02402E+14;20240204_04:21:37.524;1707060097524;0,131621;-0,211708;-0,270028;1,97688;;;;;BLINK
2,02402E+14;20240204_04:21:37.531;1707060097531;0,131621;-0,211708;-0,270028;1,97688;;;;;BLINK
2,02402E+14;20240204_04:21:37.541;1707060097541;0,0115728;-1,01563;0,157328;2,12639;;;;;BLINK
2,02402E+14;20240204_04:21:37.548;1707060097548;0,0115728;-1,01563;0,157328;2,12639;;;;;BLINK
2,02402E+14;20240204_04:21:37.557;1707060097557;-0,879729;-0,878221;-0,0461556;2,20308;;;;;BLINK
2,02402E+14;20240204_04:21:37.565;1707060097565;-0,879729;-0,878221;-0,0461556;2,20308;;;;;BLINK
2,02402E+14;20240204_04:21:37.574;1707060097574;-0,231124;-0,061432;-0,692971;0,15528;;;;;BLINK
2,02402E+14;20240204_04:21:37.582;1707060097582;-0,917597;-0,834313;-0,743082;1,42739;;;;;BLINK
2,02402E+14;20240204_04:21:37.590;1707060097590;-0,917597;-0,834313;-0,743082;0,839571;;;;;BLINK
2,02402E+14;20240204_04:21:37.599;1707060097599;-1,62413;-1,09152;-0,267397;0,908142;;;;;BLINK
2,02402E+14;20240204_04:21:37.607;1707060097607;-0,543257;-0,117612;0,443348;1,56715;;;;;BLINK
2,02402E+14;20240204_04:21:37.616;1707060097616;0,133326;0,553178;0,830172;1,36389;;;;;BLINK
2,02402E+14;20240204_04:21:37.623;1707060097623;0,133326;0,553178;0,830172;1,36389;;;;;BLINK
2,02402E+14;20240204_04:21:37.632;1707060097632;0,551675;0,0917268;0,172095;0,965996;;;;;BLINK
2,02402E+14;20240204_04:21:37.640;1707060097640;0,551675;0,0917268;0,172095;0,965996;;;;;BLINK
2,02402E+14;20240204_04:21:37.649;1707060097649;-0,0530815;-0,103164;1,35769;0,937859;;;;;BLINK
2,02402E+14;20240204_04:21:37.657;1707060097657;0,0279309;-0,195458;1,51511;0,501706;;;;;BLINK
2,02402E+14;20240204_04:21:37.665;1707060097665;-0,118371;0,0724268;1,37507;0,732286;;;;;BLINK
2,02402E+14;20240204_04:21:37.674;1707060097674;-0,194132;0,457086;1,88572;1,54417;;;;;BLINK
2,02402E+14;20240204_04:21:37.682;1707060097682;-0,194132;0,457086;1,88572;1,54417;;;;;BLINK
2,02402E+14;20240204_04:21:37.690;1707060097690;-0,625355;0,258151;1,91814;1,68949;;;;;BLINK
2,02402E+14;20240204_04:21:37.698;1707060097698;-0,987997;0,213063;1,36846;1,69268;;;;;BLINK
2,02402E+14;20240204_04:21:37.707;1707060097707;0,0643877;0,857452;1,42415;1,53442;;;;;BLINK
2,02402E+14;20240204_04:21:37.715;1707060097715;0,0643877;0,857452;1,42415;1,53442;;;;;BLINK
2,02402E+14;20240204_04:21:37.723;1707060097723;-0,463783;-0,0422613;2,25183;0,986071;;;;;BLINK
2,02402E+14;20240204_04:21:37.732;1707060097732;-0,463783;-0,0422613;2,25183;0,986071;;;;;BLINK
2,02402E+14;20240204_04:21:37.740;1707060097740;-0,550956;0,097977;2,04943;1,33915;;;;;BLINK
2,02402E+14;20240204_04:21:37.749;1707060097749;-1,32397;0,922216;1,47298;1,08344;;;;;BLINK
2,02402E+14;20240204_04:21:37.757;1707060097757;-1,32397;0,588487;1,47298;1,08344;;;;;BLINK
2,02402E+14;20240204_04:21:37.765;1707060097765;-2,46563;-0,100482;0,367934;0,137432;;;;;BLINK
2,02402E+14;20240204_04:21:37.773;1707060097773;-1,62276;-0,193221;0,662631;0,201684;;;;;BLINK
2,02402E+14;20240204_04:21:37.782;1707060097782;-2,25855;-1,74816;0,313952;0,0411253;;;;;BLINK
2,02402E+14;20240204_04:21:37.791;1707060097791;-3,51994;-1,74816;0,179403;-1,24258;;;;;BLINK
2,02402E+14;20240204_04:21:37.798;1707060097798;-3,51994;-2,56768;0,179403;-1,24258;;;;;BLINK
2,02402E+14;20240204_04:21:37.807;1707060097807;-3,51994;-2,56768;0,179403;-1,24258;;;;;BLINK
2,02402E+14;20240204_04:21:37.815;1707060097815;-2,90053;-1,57784;0,351111;-1,04222;;;;;BLINK
2,02402E+14;20240204_04:21:37.824;1707060097824;-2,73684;-0,656638;0,078582;-0,075918;;;;;BLINK
2,02402E+14;20240204_04:21:37.831;1707060097831;-2,09483;-0,205735;0,915182;-0,723217;;;;;BLINK
2,02402E+14;20240204_04:21:37.841;1707060097841;-0,15478;-0,985133;0,766882;-1,04728;;;;;BLINK
2,02402E+14;20240204_04:21:37.849;1707060097849;-0,15478;-0,985133;0,766882;-1,03052;;;;;BLINK
2,02402E+14;20240204_04:21:37.858;1707060097858;-1,11451;-1,66936;0,889928;-1,10957;;;;;BLINK
2,02402E+14;20240204_04:21:37.865;1707060097865;-1,11451;-1,66936;0,889928;-1,10957;;;;;BLINK
2,02402E+14;20240204_04:21:37.873;1707060097873;-3,57896;-3,09741;0,613229;-2,59156;;;;;BLINK
2,02402E+14;20240204_04:21:37.882;1707060097882;-3,57896;-3,09741;0,613229;-2,59156;;;;;BLINK
2,02402E+14;20240204_04:21:37.891;1707060097891;-1,60317;-0,516103;0,0458367;-1,28146;;;;;BLINK
2,02402E+14;20240204_04:21:37.899;1707060097899;-1,09774;-0,606782;1,81075;-1,18503;;;;;BLINK
2,02402E+14;20240204_04:21:37.906;1707060097906;-1,09774;-0,606782;1,81075;-1,18503;;;;;BLINK
2,02402E+14;20240204_04:21:37.916;1707060097916;-0,651023;0,254763;2,32759;-0,722473;;;;;BLINK
2,02402E+14;20240204_04:21:37.923;1707060097923;-0,651023;0,254763;2,32759;-0,722473;;;;;BLINK
2,02402E+14;20240204_04:21:37.934;1707060097934;-1,00227;-0,091917;0,952737;-1,14873;;;;;BLINK
2,02402E+14;20240204_04:21:37.940;1707060097940;-1,00227;-0,091917;0,952737;-1,14873;;;;;BLINK
2,02402E+14;20240204_04:21:37.949;1707060097949;-2,67685;-3,39808;0,217563;-3,02446;;;;;BLINK
2,02402E+14;20240204_04:21:37.958;1707060097958;-2,67685;-3,39808;0,217563;-3,02446;;;;;BLINK
2,02402E+14;20240204_04:21:37.966;1707060097966;-0,21575;-2,52875;-0,0399512;-2,90749;;;;;BLINK
2,02402E+14;20240204_04:21:37.974;1707060097974;-0,21575;-2,52875;-0,0399512;-2,90749;;;;;BLINK
2,02402E+14;20240204_04:21:37.983;1707060097983;-1,19268;-0,629927;-0,340906;-0,21309;;;;;BLINK
2,02402E+14;20240204_04:21:37.991;1707060097991;-0,109722;-0,0534031;0,935786;-1,33149;;;;;BLINK
2,02402E+14;20240204_04:21:37.998;1707060097998;-0,109722;-0,0534031;0,935786;-1,33149;;;;;BLINK
2,02402E+14;20240204_04:21:38.007;1707060098007;-0,514262;0,213389;0,948132;-0,722734;;;;;BLINK
2,02402E+14;20240204_04:21:38.015;1707060098015;-0,514262;0,213389;0,948132;-0,722734;;;;;BLINK
2,02402E+14;20240204_04:21:38.025;1707060098025;-2,51943;-1,87901;-0,297408;-1,99206;;;;;BLINK
2,02402E+14;20240204_04:21:38.032;1707060098032;-2,51943;-1,87901;-0,297408;-1,99206;;;;;BLINK
2,02402E+14;20240204_04:21:38.041;1707060098041;-3,25686;-2,94152;-0,722122;-2,77205;;;;;BLINK
2,02402E+14;20240204_04:21:38.049;1707060098049;-1,81961;-1,83113;0,202078;-2,11556;;;;;BLINK
2,02402E+14;20240204_04:21:38.057;1707060098057;-1,81961;-1,83113;0,202078;-2,11556;;;;;BLINK
2,02402E+14;20240204_04:21:38.066;1707060098066;-0,426085;-0,144899;0,213215;-1,24716;;;;;BLINK
2,02402E+14;20240204_04:21:38.073;1707060098073;-0,426085;-0,144899;0,213215;-1,24716;;;;;BLINK
2,02402E+14;20240204_04:21:38.082;1707060098082;-1,47481;-1,37167;-1,67972;-1,99631;;;;;BLINK
2,02402E+14;20240204_04:21:38.091;1707060098091;-1,47481;-1,37167;-1,67972;-1,99631;;;;;BLINK_TWICE
2,02402E+14;20240204_04:21:38.100;1707060098100;-1,32888;-0,349812;-0,762586;-0,12488;;;;;BLINK_TWICE
2,02402E+14;20240204_04:21:38.108;1707060098108;-1,74709;-0,805234;-0,241347;-0,13993;;;;;BLINK_TWICE
2,02402E+14;20240204_04:21:38.116;1707060098116;-1,98015;-1,55616;-0,424244;-1,80064;;;;;BLINK_TWICE
2,02402E+14;20240204_04:21:38.125;1707060098125;0,310078;-1,62867;-0,175405;-2,28408;;;;;BLINK_TWICE
2,02402E+14;20240204_04:21:38.132;1707060098132;0,310078;-1,62867;-0,175405;-2,28408;;;;;BLINK_TWICE
2,02402E+14;20240204_04:21:38.142;1707060098142;1,25134;-0,104947;-0,142921;-1,37488;;;;;BLINK_TWICE
2,02402E+14;20240204_04:21:38.148;1707060098148;1,25134;-0,104947;-0,142921;-1,37488;;;;;BLINK_TWICE
2,02402E+14;20240204_04:21:38.158;1707060098158;0,494581;-0,0228653;0,332403;-0,01112;;;;;BLINK_TWICE
2,02402E+14;20240204_04:21:38.166;1707060098166;0,494581;-0,0228653;0,332403;-0,01112;;;;;BLINK_TWICE
2,02402E+14;20240204_04:21:38.174;1707060098174;-2,05622;-0,699963;-1,34723;-1,18298;;;;;BLINK_TWICE
2,02402E+14;20240204_04:21:38.183;1707060098183;-2,05622;-0,699963;-1,34723;-1,18298;;;;;BLINK_TWICE
2,02402E+14;20240204_04:21:38.191;1707060098191;-1,53441;-0,094836;-2,41765;-0,081239;;;;;BLINK_TWICE
2,02402E+14;20240204_04:21:38.200;1707060098200;-1,00968;-1,59518;-2,16336;-0,690043;;;;;BLINK_TWICE
2,02402E+14;20240204_04:21:38.207;1707060098207;0,0062115;-1,65118;-0,522195;-1,09115;;;;;BLINK_TWICE
2,02402E+14;20240204_04:21:38.217;1707060098217;-0,374135;-0,369997;0,143456;-0,986619;;;;;BLINK_TWICE
2,02402E+14;20240204_04:21:38.223;1707060098223;-0,374135;-0,369997;0,143456;-0,986619;;;;;BLINK_TWICE
2,02402E+14;20240204_04:21:38.233;1707060098233;0,402512;-0,511161;-0,347282;-0,811278;;;;;BLINK_TWICE
2,02402E+14;20240204_04:21:38.240;1707060098240;0,402512;-0,511161;-0,347282;-0,811278;;;;;BLINK_TWICE
2,02402E+14;20240204_04:21:38.249;1707060098249;-1,36624;-1,25334;-0,864139;-1,41029;;;;;BLINK_TWICE
2,02402E+14;20240204_04:21:38.258;1707060098258;-1,99527;-1,72493;-1,05469;-1,57911;;;;;BLINK_TWICE
2,02402E+14;20240204_04:21:38.266;1707060098266;-0,21134;-2,24805;-1,57692;-1,45989;;;;;BLINK_TWICE
2,02402E+14;20240204_04:21:38.274;1707060098274;-1,99426;-2,64063;-1,82891;-1,51598;;;;;BLINK_TWICE
2,02402E+14;20240204_04:21:38.282;1707060098282;-1,99426;-2,64063;-1,82891;-1,51598;;;;;BLINK_TWICE
2,02402E+14;20240204_04:21:38.292;1707060098292;0,0291242;-2,12234;-1,32725;-1,21679;;;;;BLINK_TWICE
2,02402E+14;20240204_04:21:38.299;1707060098299;0,0291242;-2,12234;-1,32725;-1,21679;;;;;BLINK_TWICE
2,02402E+14;20240204_04:21:38.308;1707060098308;0,234324;-0,362539;-1,03937;0,501281;;;;;BLINK_TWICE
2,02402E+14;20240204_04:21:38.316;1707060098316;0,234324;-0,362539;-1,03937;0,501281;;;;;BLINK_TWICE
2,02402E+14;20240204_04:21:38.324;1707060098324;1,61988;-0,0695953;-0,978669;1,57082;;;;;BLINK_TWICE
2,02402E+14;20240204_04:21:38.333;1707060098333;1,61988;-0,0695953;-0,978669;1,57082;;;;;BLINK_TWICE
2,02402E+14;20240204_04:21:38.340;1707060098340;1,61465;0,097823;-1,58547;0,20663;;;;;BLINK_TWICE
2,02402E+14;20240204_04:21:38.349;1707060098349;1,97993;0,489336;-0,963536;2,10423;;;;;BLINK_TWICE
2,02402E+14;20240204_04:21:38.357;1707060098357;1,93459;0,316558;-0,421067;2,13269;;;;;BLINK_TWICE
2,02402E+14;20240204_04:21:38.367;1707060098367;1,71013;0,316558;-0,289906;1,88698;;;;;BLINK_TWICE
2,02402E+14;20240204_04:21:38.375;1707060098375;1,44869;0,0834494;-1,10087;1,22865;;;;;BLINK_TWICE
2,02402E+14;20240204_04:21:38.383;1707060098383;2,17515;0,498558;-0,840543;1,56272;;;;;BLINK_TWICE
2,02402E+14;20240204_04:21:38.390;1707060098390;2,17515;0,498558;-0,840543;1,56272;;;;;BLINK_TWICE
2,02402E+14;20240204_04:21:38.400;1707060098400;2,28307;0,530589;-1,31063;1,65252;;;;;BLINK_TWICE
2,02402E+14;20240204_04:21:38.407;1707060098407;2,28307;0,530589;-1,31063;1,65252;;;;;BLINK_TWICE
2,02402E+14;20240204_04:21:38.416;1707060098416;1,81016;0,346648;-1,24946;1,51785;;;;;BLINK_TWICE
2,02402E+14;20240204_04:21:38.425;1707060098425;1,50139;0,074725;-0,296166;2,07675;;;;;BLINK_TWICE
2,02402E+14;20240204_04:21:38.433;1707060098433;1,85328;1,18232;-1,18784;1,93502;;;;;BLINK_TWICE
2,02402E+14;20240204_04:21:38.441;1707060098441;1,66643;1,11189;-1,75152;2,03822;;;;;BLINK_TWICE
2,02402E+14;20240204_04:21:38.450;1707060098450;1,16455;0,915631;-1,63371;1,98533;;;;;BLINK_TWICE
2,02402E+14;20240204_04:21:38.459;1707060098459;-0,796772;0,434804;-0,357346;0,14381;;;;;BLINK_TWICE
2,02402E+14;20240204_04:21:38.466;1707060098466;-0,796772;0,434804;-0,357346;0,14381;;;;;BLINK_TWICE
2,02402E+14;20240204_04:21:38.474;1707060098474;-0,583633;0,0148007;-1,23177;1,55292;;;;;BLINK_TWICE
2,02402E+14;20240204_04:21:38.482;1707060098482;-1,08808;-0,364066;-1,41176;0,437593;;;;;BLINK_TWICE
2,02402E+14;20240204_04:21:38.491;1707060098491;-0,0300257;-0,364066;-1,41176;0,437593;;;;;BLINK_TWICE
2,02402E+14;20240204_04:21:38.500;1707060098500;-1,52581;-0,357514;-1,96497;0,317872;;;;;BLINK_TWICE
2,02402E+14;20240204_04:21:38.507;1707060098507;-1,52581;-0,357514;-1,96497;0,317872;;;;;BLINK_TWICE
2,02402E+14;20240204_04:21:38.516;1707060098516;-0,526796;0,529149;-0,23812;0,837175;;;;;BLINK_TWICE
2,02402E+14;20240204_04:21:38.524;1707060098524;-0,526796;0,529149;-0,23812;0,837175;;;;;BLINK_TWICE
2,02402E+14;20240204_04:21:38.534;1707060098534;-1,10619;-0,324742;-1,78871;-1,28056;;;;;BLINK_TWICE
2,02402E+14;20240204_04:21:38.541;1707060098541;-1,10619;-0,324742;-1,78871;-1,28056;;;;;BLINK_TWICE
2,02402E+14;20240204_04:21:38.550;1707060098550;-0,734706;-1,02535;-1,69057;-1,53714;;;;;BLINK_TWICE
2,02402E+14;20240204_04:21:38.558;1707060098558;-2,10578;-1,67332;-0,27207;-2,16886;;;;;BLINK_TWICE
2,02402E+14;20240204_04:21:38.566;1707060098566;-4,77978;-4,27097;-5,03852;-4,23127;;;;;BLINK_TWICE
2,02402E+14;20240204_04:21:38.575;1707060098575;-0.000113644;-0.000115141;-0.000128889;-0.00010968;;;;;BLINK_TWICE
2,02402E+14;20240204_04:21:38.583;1707060098583;-0.000113644;-0.000115141;-0.000128889;-0.00010968;;;;;BLINK_TWICE
2,02402E+14;20240204_04:21:38.592;1707060098592;-0.000139771;-0.000136812;-0.000153382;-0.000127847;;;;;BLINK_TWICE
2,02402E+14;20240204_04:21:38.599;1707060098599;-0.000146442;-0.000136812;-0.000153382;-0.000127847;;;;;BLINK_TWICE
2,02402E+14;20240204_04:21:38.608;1707060098608;-0.000147039;-0.000138361;-0.000143074;-0.000129729;;;;;BLINK_TWICE
2,02402E+14;20240204_04:21:38.616;1707060098616;-0.000147039;-0.000138361;-0.000143074;-0.000129729;;;;;BLINK_TWICE
2,02402E+14;20240204_04:21:38.624;1707060098624;-0.0001314;-0.000128869;-0.000134323;-0.000118905;;;;;BLINK_TWICE
2,02402E+14;20240204_04:21:38.634;1707060098634;-0.0001314;-0.000128869;-0.000134323;-0.000118905;;;;;BLINK_TWICE
2,02402E+14;20240204_04:21:38.641;1707060098641;-0.000107025;-9,35272;-0.000102621;-8,49747;;;;;BLINK_TWICE
2,02402E+14;20240204_04:21:38.649;1707060098649;-6,39682;-6,37943;-7,46339;-6,13821;;;;;BLINK_TWICE
2,02402E+14;20240204_04:21:38.657;1707060098657;-6,39682;-6,37943;-7,46339;-6,13821;;;;;BLINK_TWICE
2,02402E+14;20240204_04:21:38.667;1707060098667;-3,87969;-3,09407;-4,09799;-3,31924;;;;;BLINK_TWICE
2,02402E+14;20240204_04:21:38.675;1707060098675;-3,87969;-3,09407;-4,09799;-3,31924;;;;;BLINK_TWICE
2,02402E+14;20240204_04:21:38.683;1707060098683;-2,43267;-1,04141;-0,16396;-1,59064;;;;;BLINK_TWICE
2,02402E+14;20240204_04:21:38.691;1707060098691;-2,43267;-1,04141;-0,16396;-1,59064;;;;;BLINK_TWICE
2,02402E+14;20240204_04:21:38.700;1707060098700;0,394704;1,26203;0,613929;1,10249;;;;;BLINK_TWICE
2,02402E+14;20240204_04:21:38.709;1707060098709;0,394704;1,26203;0,613929;1,10249;;;;;BLINK_TWICE
2,02402E+14;20240204_04:21:38.717;1707060098717;4,26477;4,29554;2,80652;3,17657;;;;;BLINK_TWICE
2,02402E+14;20240204_04:21:38.725;1707060098725;6,65374;7,61337;5,31494;0,06479;;;;;BLINK_TWICE
2,02402E+14;20240204_04:21:38.733;1707060098733;6,65374;7,61337;5,31494;0,06479;;;;;BLINK_TWICE
2,02402E+14;20240204_04:21:38.741;1707060098741;7,73972;8,48329;7,07032;7,62196;;;;;BLINK_TWICE
2,02402E+14;20240204_04:21:38.749;1707060098749;7,73972;8,48329;7,07032;7,62196;;;;;BLINK_TWICE
2,02402E+14;20240204_04:21:38.759;1707060098759;8,66583;9,04284;7,90863;7,94854;;;;;BLINK_TWICE
2,02402E+14;20240204_04:21:38.766;1707060098766;8,66583;9,04284;7,90863;7,94854;;;;;BLINK_TWICE
2,02402E+14;20240204_04:21:38.775;1707060098775;7,26099;8,49922;8,45235;7,55181;;;;;BLINK_TWICE
2,02402E+14;20240204_04:21:38.783;1707060098783;7,26099;8,49922;8,45235;7,55181;;;;;BLINK_TWICE
2,02402E+14;20240204_04:21:38.792;1707060098792;8,93795;9,25704;7,19485;8,04189;;;;;BLINK_TWICE
2,02402E+14;20240204_04:21:38.799;1707060098799;9,24137;9,25704;7,19485;8,28472;;;;;BLINK_TWICE
2,02402E+14;20240204_04:21:38.808;1707060098808;9,64423;9,42086;7,57841;7,96743;;;;;BLINK_TWICE
