experiment;timestamp;timestamp_ms;signal_eeg_01;signal_eeg_02;signal_eeg_t3;signal_eeg_t4;resistance_eeg_01;resistance_eeg_02;resistance_eeg_t3;resistance_eeg_t4;label
20240130101353;20240130_10:57:02,675;1706651822675;-0,263664;0,441634;-0,482505;-1,31308;;;;;BLINK
20240130101353;20240130_10:57:02,694;1706651822694;-1,69345;-1,45817;-0,092827;-2,02968;;;;;BLINK
20240130101353;20240130_10:57:02,713;1706651822713;-0,574885;-0,560893;-0,0115674;-0,797925;;;;;BLINK
20240130101353;20240130_10:57:02,732;1706651822732;-0,079714;-0,638373;-1,41134;-1,77156;;;;;BLINK
20240130101353;20240130_10:57:02,743;1706651822743;-0,398249;-0,269443;0,129608;-1,47237;;;;;BLINK
20240130101353;20240130_10:57:02,759;1706651822759;-0,993301;-1,35356;0,072718;-2,10696;;;;;BLINK
20240130101353;20240130_10:57:02,777;1706651822777;-0,675398;-0,371486;-0,341045;-0,18354;;;;;BLINK
20240130101353;20240130_10:57:02,794;1706651822794;-0,675398;-0,371486;-0,341045;-0,18354;;;;;BLINK
20240130101353;20240130_10:57:02,813;1706651822813;-0,15078;-0,720719;-0,965464;-1,96712;;;;;BLINK
20240130101353;20240130_10:57:02,828;1706651822828;-0,13055;-0,11347;-0,12709;-2,16321;;;;;BLINK
20240130101353;20240130_10:57:02,846;1706651822846;-1,76523;-1,68789;-1,30613;-0,14642;;;;;BLINK
20240130101353;20240130_10:57:02,861;1706651822861;-1,17208;-1,28588;-1,00968;-2,18569;;;;;BLINK
20240130101353;20240130_10:57:02,878;1706651822878;-0,300765;-0,861129;-1,03577;-0,070082;;;;;BLINK
20240130101353;20240130_10:57:02,894;1706651822894;-0,650295;0,0697368;-0,342589;-0,621914;;;;;BLINK
20240130101353;20240130_10:57:02,911;1706651822911;-1,59723;-1,85029;-0,088742;-1,56688;;;;;BLINK
20240130101353;20240130_10:57:02,930;1706651822930;-2,27893;-2,39744;-0,19141;-1,69184;;;;;BLINK
20240130101353;20240130_10:57:02,943;1706651822943;-3,68446;-3,01868;-2,50421;-2,18403;;;;;BLINK
20240130101353;20240130_10:57:02,960;1706651822960;-7,08618;-0,77041;-5,95479;-0,64072;;;;;BLINK
20240130101353;20240130_10:57:02,977;1706651822977;-9,83959;-9,54256;-8,76073;-8,44386;;;;;BLINK
20240130101353;20240130_10:57:02,994;1706651822994;-9,30399;-8,96944;-8,60916;-7,43792;;;;;BLINK
20240130101353;20240130_10:57:03,015;1706651823015;-7,32598;-6,76963;-6,16631;-5,60927;;;;;BLINK
20240130101353;20240130_10:57:03,028;1706651823028;-6,06451;-5,23558;-3,89261;-0,41984;;;;;BLINK
20240130101353;20240130_10:57:03,044;1706651823044;-0,007733;0,512182;0,0748005;-0,230063;;;;;BLINK
20240130101353;20240130_10:57:03,061;1706651823061;-0,419602;1,00431;0,0805983;-0,435127;;;;;BLINK
20240130101353;20240130_10:57:03,078;1706651823078;1,13423;1,36291;1,24251;0,912661;;;;;BLINK
20240130101353;20240130_10:57:03,094;1706651823094;2,87184;3,50264;0,31519;1,43345;;;;;BLINK
20240130101353;20240130_10:57:03,111;1706651823111;3,37917;3,79856;3,61184;2,34688;;;;;BLINK
20240130101353;20240130_10:57:03,130;1706651823130;2,77601;2,82525;2,93698;0,094152;;;;;BLINK
20240130101353;20240130_10:57:03,146;1706651823146;0,23086;2,50796;3,23913;0,778523;;;;;BLINK
20240130101353;20240130_10:57:03,161;1706651823161;1,97643;2,14428;1,99661;1,31302;;;;;BLINK
20240130101353;20240130_10:57:03,177;1706651823177;2,81944;1,89074;2,78037;0,926154;;;;;BLINK
20240130101353;20240130_10:57:03,194;1706651823194;2,01739;1,18311;2,10984;0,745858;;;;;BLINK
20240130101353;20240130_10:57:03,212;1706651823212;0,502198;1,00762;1,57888;-0,333128;;;;;BLINK
20240130101353;20240130_10:57:03,227;1706651823227;-0,174159;0,208511;0,925882;-0,239995;;;;;BLINK
20240130101353;20240130_10:57:03,244;1706651823244;2,01518;0,700031;1,07552;0,791396;;;;;BLINK
20240130101353;20240130_10:57:03,262;1706651823262;2,43262;0,742111;1,76533;0,341093;;;;;BLINK
20240130101353;20240130_10:57:03,278;1706651823278;2,10415;1,88164;1,67495;0,867271;;;;;BLINK
20240130101353;20240130_10:57:03,293;1706651823293;-0,244226;-0,397411;1,05095;-0,0541204;;;;;BLINK
20240130101353;20240130_10:57:03,312;1706651823312;0,018441;0,515178;1,27161;0,806492;;;;;BLINK
20240130101353;20240130_10:57:03,328;1706651823328;1,45549;1,45723;1,43018;1,12548;;;;;BLINK
20240130101353;20240130_10:57:03,342;1706651823342;2,31169;1,96058;1,79856;1,27785;;;;;BLINK
20240130101353;20240130_10:57:03,361;1706651823361;1,27085;1,73169;1,96242;1,31738;;;;;BLINK
20240130101353;20240130_10:57:03,376;1706651823376;1,96515;2,38731;1,27117;1,41152;;;;;BLINK
20240130101353;20240130_10:57:03,396;1706651823396;1,83222;0,296226;1,07575;0,630016;;;;;BLINK
20240130101353;20240130_10:57:03,412;1706651823412;1,74584;0,957827;1,12811;-0,043756;;;;;BLINK
20240130101353;20240130_10:57:03,428;1706651823428;1,42529;0,854021;0,627918;-0,359279;;;;;BLINK
20240130101353;20240130_10:57:03,443;1706651823443;0,935218;0,464124;1,11313;-0,062072;;;;;BLINK
20240130101353;20240130_10:57:03,463;1706651823463;0,16111;1,35939;1,06461;0,190613;;;;;BLINK
20240130101353;20240130_10:57:03,478;1706651823478;2,10918;1,48401;1,62872;-0,0749847;;;;;BLINK
20240130101353;20240130_10:57:03,496;1706651823496;2,11214;1,13744;1,09555;-0,933388;;;;;BLINK
20240130101353;20240130_10:57:03,514;1706651823514;1,52732;0,548993;1,01523;-1,03517;;;;;BLINK
20240130101353;20240130_10:57:03,528;1706651823528;3,01798;1,47619;1,43757;0,255787;;;;;BLINK
20240130101353;20240130_10:57:03,546;1706651823546;2,59306;1,39101;1,05204;-0,139783;;;;;BLINK
20240130101353;20240130_10:57:03,561;1706651823561;0,130472;-0,114942;-0,099354;-1,60506;;;;;BLINK
20240130101353;20240130_10:57:03,581;1706651823581;0,239158;0,195329;-2,06303;-1,62416;;;;;BLINK
20240130101353;20240130_10:57:03,595;1706651823595;-0,088549;-1,25718;-2,27046;-1,49086;;;;;BLINK
20240130101353;20240130_10:57:03,611;1706651823611;-1,29733;-0,753949;-2,20805;-0,15446;;;;;BLINK
20240130101353;20240130_10:57:03,626;1706651823626;-1,23281;-0,610035;-2,20805;-0,15446;;;;;BLINK
20240130101353;20240130_10:57:03,644;1706651823644;-1,14369;0,182035;-1,37077;-0,13017;;;;;BLINK
20240130101353;20240130_10:57:03,666;1706651823666;-0,672829;-0,147708;-1,90449;-1,43188;;;;;BLINK
20240130101353;20240130_10:57:03,676;1706651823676;-0,503247;-0,714607;-1,68962;-1,43188;;;;;BLINK
20240130101353;20240130_10:57:03,693;1706651823693;0,707281;0,916334;-0,657534;-0,069503;;;;;BLINK
20240130101353;20240130_10:57:03,711;1706651823711;-0,957951;-1,29711;-2,44018;-1,12471;;;;;BLINK
20240130101353;20240130_10:57:03,727;1706651823727;-1,57324;-1,14168;-1,53526;-1,19248;;;;;BLINK
20240130101353;20240130_10:57:03,742;1706651823742;-0,545255;-0,694495;-1,46301;-0,13887;;;;;BLINK
20240130101353;20240130_10:57:03,762;1706651823762;-1,50625;-1,08294;-2,27071;-1,10904;;;;;BLINK
20240130101353;20240130_10:57:03,778;1706651823778;-0,807413;-0,978501;-1,75852;-0,837912;;;;;BLINK
20240130101353;20240130_10:57:03,793;1706651823793;-0,715007;-0,978501;-1,75852;-0,938422;;;;;BLINK
20240130101353;20240130_10:57:03,809;1706651823809;-0,941247;-0,347692;-1,88643;-0,868886;;;;;BLINK
20240130101353;20240130_10:57:03,827;1706651823827;-0,889809;-0,747058;-1,63729;-1,50529;;;;;BLINK
20240130101353;20240130_10:57:03,844;1706651823844;-1,38984;-1,87024;-2,16697;-1,36147;;;;;BLINK
20240130101353;20240130_10:57:03,863;1706651823863;-0,730077;-1,70522;-1,78968;-1,89665;;;;;BLINK
20240130101353;20240130_10:57:03,878;1706651823878;0,00696017;-0,734777;-1,35634;-1,24308;;;;;BLINK
20240130101353;20240130_10:57:03,893;1706651823893;0,0206965;-0,765898;-1,23885;-0,746792;;;;;BLINK
20240130101353;20240130_10:57:03,909;1706651823909;-1,04937;-1,55266;-2,00779;-1,19953;;;;;BLINK
20240130101353;20240130_10:57:03,928;1706651823928;-0,537779;-0,558713;-1,69859;-0,765292;;;;;BLINK
20240130101353;20240130_10:57:03,946;1706651823946;-0,25375;-1,18049;-2,62924;-1,20011;;;;;BLINK
20240130101353;20240130_10:57:03,961;1706651823961;-0,096051;-1,59143;-1,48219;-0,954438;;;;;BLINK
20240130101353;20240130_10:57:03,976;1706651823976;0,0861775;-0,0944238;-1,38993;-0,876103;;;;;BLINK
20240130101353;20240130_10:57:03,996;1706651823996;-0,647697;-0,359249;-0,993412;-0,858651;;;;;BLINK
20240130101353;20240130_10:57:04,011;1706651824011;-0,053924;-0,0322629;-0,918617;-0,047944;;;;;BLINK
20240130101353;20240130_10:57:04,028;1706651824028;0,432172;0,347919;-0,966059;0,0881294;;;;;BLINK
20240130101353;20240130_10:57:04,043;1706651824043;-0,758595;-0,0639323;-1,67375;-0,357742;;;;;BLINK
20240130101353;20240130_10:57:04,059;1706651824059;-0,468502;-0,525752;-0,875335;-0,430655;;;;;BLINK
20240130101353;20240130_10:57:04,076;1706651824076;0,0954225;-0,521486;-0,709461;-0,601349;;;;;BLINK
20240130101353;20240130_10:57:04,093;1706651824093;-0,159789;-0,0148046;-0,153489;-0,653698;;;;;BLINK
20240130101353;20240130_10:57:04,110;1706651824110;0,976814;0,472011;0,585208;-0,0652741;;;;;BLINK
20240130101353;20240130_10:57:04,126;1706651824126;0,635196;1,08073;1,09685;0,500192;;;;;BLINK
20240130101353;20240130_10:57:04,142;1706651824142;0,458493;0,609558;-0,0063269;-0,00072229;;;;;BLINK
20240130101353;20240130_10:57:04,160;1706651824160;-0,106767;0,053041;0,569893;-0,054919;;;;;BLINK
20240130101353;20240130_10:57:04,180;1706651824180;-0,616028;0,656648;0,438008;0,0290203;;;;;BLINK
20240130101353;20240130_10:57:04,197;1706651824197;-1,51396;-0,12126;-0,561661;-1,00911;;;;;BLINK
20240130101353;20240130_10:57:04,215;1706651824215;0,646096;0,856227;1,30845;0,795252;;;;;BLINK
20240130101353;20240130_10:57:04,227;1706651824227;1,00944;0,291893;1,71078;0,0847567;;;;;BLINK
20240130101353;20240130_10:57:04,243;1706651824243;0,975284;-0,00396247;1,43479;-0,673763;;;;;BLINK
20240130101353;20240130_10:57:04,259;1706651824259;-1,45927;-0,462125;0,488478;-0,100016;;;;;BLINK
20240130101353;20240130_10:57:04,276;1706651824276;-0,085666;0,245136;1,25194;-0,0368735;;;;;BLINK
20240130101353;20240130_10:57:04,293;1706651824293;-0,574908;-0,0085612;0,11728;0,710974;;;;;BLINK
20240130101353;20240130_10:57:04,311;1706651824311;-0,489235;-0,0179192;0,860001;0,116445;;;;;BLINK
20240130101353;20240130_10:57:04,326;1706651824326;-0,170592;-0,114179;1,60367;-0,0964898;;;;;BLINK
20240130101353;20240130_10:57:04,343;1706651824343;0,397962;-0,347575;1,81491;-0,239084;;;;;BLINK
20240130101353;20240130_10:57:04,359;1706651824359;-0,181571;0,722518;0,13751;0,431367;;;;;BLINK
20240130101353;20240130_10:57:04,376;1706651824376;0,436045;0,177117;1,08394;-0,770845;;;;;BLINK
20240130101353;20240130_10:57:04,392;1706651824392;-0,515191;-0,129479;0,821308;0,0233642;;;;;BLINK
20240130101353;20240130_10:57:04,412;1706651824412;-0,901237;0,775191;0,616602;1,25106;;;;;BLINK
20240130101353;20240130_10:57:04,431;1706651824431;-1,13948;-0,020812;0,806551;-0,329063;;;;;BLINK
20240130101353;20240130_10:57:04,442;1706651824442;-0,623327;-0,184624;1,15078;-1,00769;;;;;BLINK
20240130101353;20240130_10:57:04,460;1706651824460;-0,588436;0,431339;0,975557;0,712425;;;;;BLINK
20240130101353;20240130_10:57:04,476;1706651824476;-0,459145;0,281802;1,44805;0,0635611;;;;;BLINK
20240130101353;20240130_10:57:04,492;1706651824492;0,574218;1,29923;1,60285;0,155727;;;;;BLINK
20240130101353;20240130_10:57:04,509;1706651824509;0,826565;0,215443;1,09747;-2,36E-06;;;;;BLINK
20240130101353;20240130_10:57:04,530;1706651824530;1,43016;0,950714;2,02974;-2,36E-06;;;;;BLINK
20240130101353;20240130_10:57:04,543;1706651824543;0,754896;-0,630418;1,11251;-0,977879;;;;;BLINK
20240130101353;20240130_10:57:04,559;1706651824559;0,913823;-0,367659;1,28449;-0,964341;;;;;BLINK
20240130101353;20240130_10:57:04,582;1706651824582;-0,666672;-0,883083;0,288248;-1,87077;;;;;BLINK
20240130101353;20240130_10:57:04,595;1706651824595;-0,201661;-1,30334;-0,524544;-1,79802;;;;;BLINK
20240130101353;20240130_10:57:04,612;1706651824612;0,471743;-0,855379;0,108286;-1,18614;;;;;BLINK
20240130101353;20240130_10:57:04,629;1706651824629;2,76799;1,26699;0,16175;-0,0068909;;;;;BLINK
20240130101353;20240130_10:57:04,643;1706651824643;1,86819;1,02477;-0,264622;-0,078135;;;;;BLINK
20240130101353;20240130_10:57:04,660;1706651824660;0,271038;-0,218076;0,100598;-0,590118;;;;;BLINK
20240130101353;20240130_10:57:04,678;1706651824678;1,01408;0,692005;0,826544;0,00139777;;;;;BLINK
