experiment;timestamp;timestamp_ms;signal_eeg_01;signal_eeg_02;signal_eeg_t3;signal_eeg_t4;resistance_eeg_01;resistance_eeg_02;resistance_eeg_t3;resistance_eeg_t4;label
20240130101353;20240130_10:57:30,693;1706651850693;-1,38236;-0,944976;-1,64314;-0,420343;;;;;RELAX
20240130101353;20240130_10:57:30,716;1706651850716;0,116803;-0,492818;-0,773782;-0,241286;;;;;RELAX
20240130101353;20240130_10:57:30,726;1706651850726;-0,072746;-0,925314;-0,222942;-0,392544;;;;;RELAX
20240130101353;20240130_10:57:30,743;1706651850743;-0,954312;0,00849109;-0,221904;0,111319;;;;;RELAX
20240130101353;20240130_10:57:30,762;1706651850762;-0,156854;0,344118;-0,356775;-0,0930115;;;;;RELAX
20240130101353;20240130_10:57:30,776;1706651850776;0,341962;0,289381;-0,117246;0,371053;;;;;RELAX
20240130101353;20240130_10:57:30,793;1706651850793;-0,586159;-0,003087;-0,761167;0,315571;;;;;RELAX
20240130101353;20240130_10:57:30,810;1706651850810;-0,586159;-0,003087;-0,761167;0,315571;;;;;RELAX
20240130101353;20240130_10:57:30,827;1706651850827;0,427026;0,758035;0,381009;0,338358;;;;;RELAX
20240130101353;20240130_10:57:30,846;1706651850846;-0,402454;-0,038811;0,305945;-0,508435;;;;;RELAX
20240130101353;20240130_10:57:30,860;1706651850860;-0,611196;-0,777562;-0,0766485;-0,987179;;;;;RELAX
20240130101353;20240130_10:57:30,877;1706651850877;0,628601;0,386611;0,0450067;0,066505;;;;;RELAX
20240130101353;20240130_10:57:30,895;1706651850895;-0,256047;-0,334995;0,443076;0,532464;;;;;RELAX
20240130101353;20240130_10:57:30,912;1706651850912;0,681197;0,471055;0,778345;-0,0523541;;;;;RELAX
20240130101353;20240130_10:57:30,927;1706651850927;0,261667;0,0604075;0,778345;-0,0523541;;;;;RELAX
20240130101353;20240130_10:57:30,943;1706651850943;-0,472965;-0,522736;0,826651;0,432002;;;;;RELAX
20240130101353;20240130_10:57:30,960;1706651850960;0,676489;0,786085;0,384054;1,48926;;;;;RELAX
20240130101353;20240130_10:57:30,977;1706651850977;-1,52796;-0,609959;0,235858;0,440229;;;;;RELAX
20240130101353;20240130_10:57:30,994;1706651850994;-2,31072;-1,72338;-1,34805;-1,43924;;;;;RELAX
20240130101353;20240130_10:57:31,011;1706651851011;-0,608985;0,914567;0,0339296;-0,196169;;;;;RELAX
20240130101353;20240130_10:57:31,032;1706651851032;0,207752;0,906711;0,691514;0,249907;;;;;RELAX
20240130101353;20240130_10:57:31,047;1706651851047;-0,533224;-0,014718;0,564276;-0,181141;;;;;RELAX
20240130101353;20240130_10:57:31,061;1706651851061;-0,968503;-1,17082;0,481081;-0,745295;;;;;RELAX
20240130101353;20240130_10:57:31,076;1706651851076;-0,807015;-0,499342;0,172971;-0,866962;;;;;RELAX
20240130101353;20240130_10:57:31,095;1706651851095;1,30398;1,29346;1,15515;0,799291;;;;;RELAX
20240130101353;20240130_10:57:31,111;1706651851111;-0,287121;0,306595;0,215535;0,241585;;;;;RELAX
20240130101353;20240130_10:57:31,126;1706651851126;-0,474655;-0,310065;0,573022;0,0357826;;;;;RELAX
20240130101353;20240130_10:57:31,142;1706651851142;-0,474655;-0,310065;0,573022;0,0357826;;;;;RELAX
20240130101353;20240130_10:57:31,162;1706651851162;1,76312;0,016864;1,14015;-0,135039;;;;;RELAX
20240130101353;20240130_10:57:31,177;1706651851177;-0,00487115;0,079495;-0,381565;0,226479;;;;;RELAX
20240130101353;20240130_10:57:31,197;1706651851197;-0,462992;-0,466904;0,720779;-0,699368;;;;;RELAX
20240130101353;20240130_10:57:31,212;1706651851212;-1,14916;-0,526885;0,0711183;0,133507;;;;;RELAX
20240130101353;20240130_10:57:31,235;1706651851235;-0,233072;-0,017392;-0,437732;0,156941;;;;;RELAX
20240130101353;20240130_10:57:31,253;1706651851253;-0,125895;0,0100476;-0,239902;0,583217;;;;;RELAX
20240130101353;20240130_10:57:31,261;1706651851261;-0,844628;-0,505009;0,539707;-0,252646;;;;;RELAX
20240130101353;20240130_10:57:31,276;1706651851276;-0,671529;0,143429;0,765919;-0,152451;;;;;RELAX
20240130101353;20240130_10:57:31,294;1706651851294;0,948348;0,531316;0,410556;0,450877;;;;;RELAX
20240130101353;20240130_10:57:31,311;1706651851311;1,14574;-0,241582;0,668663;-0,481186;;;;;RELAX
20240130101353;20240130_10:57:31,331;1706651851331;-0,00099149;-0,438145;-0,892689;-0,362423;;;;;RELAX
20240130101353;20240130_10:57:31,345;1706651851345;1,12417;0,118651;0,405742;0,237782;;;;;RELAX
20240130101353;20240130_10:57:31,361;1706651851361;0,954628;1,85158;0,317888;0,099717;;;;;RELAX
20240130101353;20240130_10:57:31,377;1706651851377;2,10641;1,08699;0,339375;0,752103;;;;;RELAX
20240130101353;20240130_10:57:31,393;1706651851393;2,08053;0,17552;0,396433;0,933587;;;;;RELAX
20240130101353;20240130_10:57:31,411;1706651851411;0,773356;0,908341;0,047217;0,406643;;;;;RELAX
20240130101353;20240130_10:57:31,429;1706651851429;2,22133;1,59292;0,616314;0,753853;;;;;RELAX
20240130101353;20240130_10:57:31,443;1706651851443;3,18172;2,70169;1,48207;1,88818;;;;;RELAX
20240130101353;20240130_10:57:31,461;1706651851461;2,70092;1,91705;0,398673;0,981274;;;;;RELAX
20240130101353;20240130_10:57:31,478;1706651851478;1,16338;0,841501;-0,359958;0,957323;;;;;RELAX
20240130101353;20240130_10:57:31,494;1706651851494;0,820452;0,851384;-0,0150512;0,009569;;;;;RELAX
20240130101353;20240130_10:57:31,510;1706651851510;0,692956;0,525753;0,115705;0,710921;;;;;RELAX
20240130101353;20240130_10:57:31,528;1706651851528;0,413483;0,760878;-0,505611;0,341871;;;;;RELAX
20240130101353;20240130_10:57:31,544;1706651851544;-0,178943;0,397697;-0,383471;0,045072;;;;;RELAX
20240130101353;20240130_10:57:31,561;1706651851561;-0,865045;0,653272;-0,985042;0,529183;;;;;RELAX
20240130101353;20240130_10:57:31,579;1706651851579;-1,06536;0,281081;-1,23093;-0,645356;;;;;RELAX
20240130101353;20240130_10:57:31,595;1706651851595;-1,07939;-0,892576;-0,592127;-0,646384;;;;;RELAX
20240130101353;20240130_10:57:31,611;1706651851611;-0,0071688;-0,863249;-0,325993;-0,426423;;;;;RELAX
20240130101353;20240130_10:57:31,629;1706651851629;-0,332166;-0,00040494;0,016877;-0,001689;;;;;RELAX
20240130101353;20240130_10:57:31,646;1706651851646;-0,750244;-0,120428;0,115835;-0,366105;;;;;RELAX
20240130101353;20240130_10:57:31,661;1706651851661;-0,220161;1,01347;0,049681;-0,0599126;;;;;RELAX
20240130101353;20240130_10:57:31,678;1706651851678;-0,547116;-0,984311;-0,244784;-0,386219;;;;;RELAX
20240130101353;20240130_10:57:31,694;1706651851694;-1,78891;-1,76085;-0,810808;-0,844676;;;;;RELAX
20240130101353;20240130_10:57:31,711;1706651851711;-0,882567;-1,48353;-1,20276;-1,14734;;;;;RELAX
20240130101353;20240130_10:57:31,727;1706651851727;-1,64374;-1,08533;-1,51184;-1,76536;;;;;RELAX
20240130101353;20240130_10:57:31,747;1706651851747;-0,815498;-0,696653;-1,20665;-0,614893;;;;;RELAX
20240130101353;20240130_10:57:31,765;1706651851765;-0,296414;-0,163924;-0,237663;0,241034;;;;;RELAX
20240130101353;20240130_10:57:31,778;1706651851778;-0,166613;0,0397951;-0,182892;-0,256436;;;;;RELAX
20240130101353;20240130_10:57:31,792;1706651851792;-0,391331;-0,213071;-0,829646;-0,256436;;;;;RELAX
20240130101353;20240130_10:57:31,810;1706651851810;0,282531;0,324072;-0,350622;-0,182838;;;;;RELAX
20240130101353;20240130_10:57:31,828;1706651851828;-0,118292;-0,0147377;-0,0004169;-0,335774;;;;;RELAX
20240130101353;20240130_10:57:31,846;1706651851846;0,0599766;0,0512217;0,0536876;-0,0398879;;;;;RELAX
20240130101353;20240130_10:57:31,860;1706651851860;-0,872078;-0,493706;-0,580482;0,030319;;;;;RELAX
20240130101353;20240130_10:57:31,875;1706651851875;-0,473477;-0,313847;0,260722;0,0379887;;;;;RELAX
20240130101353;20240130_10:57:31,893;1706651851893;-0,353541;0,0244817;0,877038;0,480997;;;;;RELAX
20240130101353;20240130_10:57:31,908;1706651851908;-0,353541;0,0244817;0,877038;0,480997;;;;;RELAX
20240130101353;20240130_10:57:31,927;1706651851927;-0,215813;-0,724825;-0,632834;-1,08637;;;;;RELAX
20240130101353;20240130_10:57:31,943;1706651851943;-0,997983;-0,13832;-0,790804;-0,0592312;;;;;RELAX
20240130101353;20240130_10:57:31,961;1706651851961;-1,43796;-0,380839;-0,047836;0,353017;;;;;RELAX
20240130101353;20240130_10:57:31,976;1706651851976;-1,35673;-0,305884;0,116085;0,292476;;;;;RELAX
20240130101353;20240130_10:57:32,002;1706651852002;0,868443;0,327423;0,0306679;0,313782;;;;;RELAX
20240130101353;20240130_10:57:32,008;1706651852008;0,593846;0,204223;0,454311;0,415324;;;;;RELAX
20240130101353;20240130_10:57:32,026;1706651852026;-0,050867;-0,825043;-0,905409;-0,487372;;;;;RELAX
20240130101353;20240130_10:57:32,043;1706651852043;0,351723;-0,365531;0,188891;0,240271;;;;;RELAX
20240130101353;20240130_10:57:32,060;1706651852060;0,714589;0,442015;0,288913;0,352325;;;;;RELAX
20240130101353;20240130_10:57:32,076;1706651852076;1,31202;-0,013879;0,986483;-0,341163;;;;;RELAX
20240130101353;20240130_10:57:32,093;1706651852093;0,339797;-0,147204;0,872776;-0,205598;;;;;RELAX
20240130101353;20240130_10:57:32,111;1706651852111;-1,26745;-0,898516;-0,411312;-0,329468;;;;;RELAX
20240130101353;20240130_10:57:32,127;1706651852127;-1,26745;-0,898516;-0,411312;-0,143383;;;;;RELAX
20240130101353;20240130_10:57:32,144;1706651852144;-0,747935;-0,398699;0,071872;0,247177;;;;;RELAX
20240130101353;20240130_10:57:32,160;1706651852160;-0,0462037;0,00420976;1,21732;0,0737515;;;;;RELAX
20240130101353;20240130_10:57:32,176;1706651852176;0,643413;0,297272;0,304135;-0,547531;;;;;RELAX
20240130101353;20240130_10:57:32,197;1706651852197;0,053918;0,264662;0,548421;-0,910785;;;;;RELAX
20240130101353;20240130_10:57:32,209;1706651852209;-0,081947;-0,334807;-0,321391;-0,232759;;;;;RELAX
20240130101353;20240130_10:57:32,227;1706651852227;-1,36025;-0,408934;0,266168;-0,552362;;;;;RELAX
20240130101353;20240130_10:57:32,243;1706651852243;-0,992172;-0,0962896;0,0682758;-0,668444;;;;;RELAX
20240130101353;20240130_10:57:32,259;1706651852259;-0,809101;-1,07967;-0,328339;-0,075873;;;;;RELAX
20240130101353;20240130_10:57:32,276;1706651852276;-1,09206;-1,03512;-0,106392;-0,346301;;;;;RELAX
20240130101353;20240130_10:57:32,292;1706651852292;-1,21533;-0,430983;-0,494311;0,600505;;;;;RELAX
20240130101353;20240130_10:57:32,310;1706651852310;-1,25441;-2,33429;-1,35908;-1,30072;;;;;RELAX
20240130101353;20240130_10:57:32,334;1706651852334;0,169274;-0,595979;0,0693443;-0,0263431;;;;;RELAX
20240130101353;20240130_10:57:32,344;1706651852344;0,465295;-1,07153;-0,218798;-0,990986;;;;;RELAX
20240130101353;20240130_10:57:32,359;1706651852359;1,00466;-1,37606;0,019332;-1,19304;;;;;RELAX
20240130101353;20240130_10:57:32,376;1706651852376;0,985622;0,672364;0,897222;-0,177661;;;;;RELAX
20240130101353;20240130_10:57:32,395;1706651852395;1,20686;0,184584;-0,0863405;-0,172734;;;;;RELAX
20240130101353;20240130_10:57:32,411;1706651852411;1,37877;1,06828;0,605541;0,607481;;;;;RELAX
20240130101353;20240130_10:57:32,428;1706651852428;1,29417;1,41681;0,406434;-0,0158816;;;;;RELAX
20240130101353;20240130_10:57:32,442;1706651852442;1,63647;1,41681;0,406434;-0,0158816;;;;;RELAX
20240130101353;20240130_10:57:32,460;1706651852460;1,62998;0,166087;0,532952;0,0707983;;;;;RELAX
20240130101353;20240130_10:57:32,477;1706651852477;1,80506;2,29379;0,911465;0,048117;;;;;RELAX
20240130101353;20240130_10:57:32,494;1706651852494;1,27271;1,00321;0,199492;1,19648;;;;;RELAX
20240130101353;20240130_10:57:32,511;1706651852511;1,92153;1,57617;0,269393;1,50006;;;;;RELAX
20240130101353;20240130_10:57:32,530;1706651852530;0,13926;1,27003;0,819348;0,802921;;;;;RELAX
20240130101353;20240130_10:57:32,543;1706651852543;0,123515;0,872623;0,0355456;0,053976;;;;;RELAX
20240130101353;20240130_10:57:32,560;1706651852560;0,123515;0,872623;0,0355456;0,053976;;;;;RELAX
20240130101353;20240130_10:57:32,575;1706651852575;-0,554682;-0,272726;-0,505961;0,452518;;;;;RELAX
20240130101353;20240130_10:57:32,593;1706651852593;-0,363984;0,193471;-0,910785;0,0756743;;;;;RELAX
20240130101353;20240130_10:57:32,609;1706651852609;-0,030082;-0,236782;-1,13677;-0,299119;;;;;RELAX
20240130101353;20240130_10:57:32,626;1706651852626;-0,00511211;0,436831;-0,130184;0,0252444;;;;;RELAX
20240130101353;20240130_10:57:32,644;1706651852644;-0,668398;0,184834;-0,436966;-0,657731;;;;;RELAX
20240130101353;20240130_10:57:32,658;1706651852658;-0,668398;0,184834;-0,436966;-0,657731;;;;;RELAX
20240130101353;20240130_10:57:32,676;1706651852676;1,04769;1,01974;0,355472;0,704827;;;;;RELAX
