_id;experiment;timestamp;timestamp_ms;signal_eeg_01;signal_eeg_02;signal_eeg_t3;signal_eeg_t4;resistance_eeg_01;resistance_eeg_02;resistance_eeg_t3;resistance_eeg_t4;label
;20240130101353;20240130_10:13:53,884;1706649233884;-3,65657;-0,000525762;-2,27633;-0,000361369;;;;;RELAX
;20240130101353;20240130_10:13:53,910;1706649233910;-4,52042;-0,000478624;-3,01196;-0,000317823;;;;;RELAX
;20240130101353;20240130_10:13:53,927;1706649233927;-2,58358;-0,000429459;-2,33859;-0,000289339;;;;;RELAX
;20240130101353;20240130_10:13:53,944;1706649233944;-3,73641;-0,000373027;-1,88527;-0,00022965;;;;;RELAX
;20240130101353;20240130_10:13:53,959;1706649233959;-2,78311;-0,00034686;-3,10181;-0,000196541;;;;;RELAX
;20240130101353;20240130_10:13:53,975;1706649233975;-1,63671;-0,000292215;-1,09788;-0,000165971;;;;;RELAX
;20240130101353;20240130_10:13:53,994;1706649233994;-3,16427;-0,000280508;-2,11536;-0,000145137;;;;;RELAX
;20240130101353;20240130_10:13:54,011;1706649234011;-0,896641;-0,000259549;-0,967063;-0,000118882;;;;;RELAX
;20240130101353;20240130_10:13:54,034;1706649234034;-0,689416;-0,000212094;0,116803;-9,94505;;;;;RELAX
;20240130101353;20240130_10:13:54,061;1706649234061;-0,650639;-0,000193128;-1,38537;-5,97253;;;;;RELAX
;20240130101353;20240130_10:13:54,094;1706649234094;-0,984873;-0,000155008;-0,038172;-3,42877;;;;;RELAX
;20240130101353;20240130_10:13:54,117;1706649234117;-1,39425;-0,000143106;-0,073786;-2,72798;;;;;RELAX
;20240130101353;20240130_10:13:54,147;1706649234147;-1,99279;-0,000130639;-0,310211;-1,95988;;;;;RELAX
;20240130101353;20240130_10:13:54,164;1706649234164;-0,10819;-0,000127748;-0,675548;-0,641079;;;;;RELAX
;20240130101353;20240130_10:13:54,193;1706649234193;-1,40378;-0,000116027;0,328361;1,29429;;;;;RELAX
;20240130101353;20240130_10:13:54,229;1706649234229;-0,681169;-0,000101725;1,90498;1,47728;;;;;RELAX
;20240130101353;20240130_10:13:54,244;1706649234244;0,012997;-0,000103088;-0,019109;1,21856;;;;;RELAX
;20240130101353;20240130_10:13:54,261;1706649234261;-0,754978;-7,98676;1,10499;1,62925;;;;;RELAX
;20240130101353;20240130_10:13:54,276;1706649234276;0,311339;-9,03017;1,07532;0,32975;;;;;RELAX
;20240130101353;20240130_10:13:54,292;1706649234292;-1,13019;-8,33086;-0,832715;1,72859;;;;;RELAX
;20240130101353;20240130_10:13:54,314;1706649234314;-0,412129;-8,15187;0,18466;2,60185;;;;;RELAX
;20240130101353;20240130_10:13:54,345;1706649234345;-0,350949;-7,55294;-0,429618;2,08939;;;;;RELAX
;20240130101353;20240130_10:13:54,360;1706649234360;-0,814821;-8,70384;0,284416;2,79093;;;;;RELAX
;20240130101353;20240130_10:13:54,377;1706649234377;0,435405;-7,36225;-1,01054;2,00363;;;;;RELAX
;20240130101353;20240130_10:13:54,396;1706649234396;-1,80536;-8,67098;-0,307293;1,38667;;;;;RELAX
;20240130101353;20240130_10:13:54,411;1706649234411;-1,18128;-9,14739;-1,41895;0,988216;;;;;RELAX
;20240130101353;20240130_10:13:54,426;1706649234426;-0,426039;-7,89897;0,344643;1,59152;;;;;RELAX
;20240130101353;20240130_10:13:54,443;1706649234443;-0,363037;-8,09013;-0,318237;0,276337;;;;;RELAX
;20240130101353;20240130_10:13:54,459;1706649234459;-0,290564;-8,38564;1,04067;1,83918;;;;;RELAX
;20240130101353;20240130_10:13:54,480;1706649234480;0,418422;-7,38653;0,14118;0,534641;;;;;RELAX
;20240130101353;20240130_10:13:54,496;1706649234496;-0,003288;-7,47094;0,732026;1,71095;;;;;RELAX
;20240130101353;20240130_10:13:54,513;1706649234513;-0,451734;-8,76593;-0,317873;0,718041;;;;;RELAX
;20240130101353;20240130_10:13:54,526;1706649234526;0,103139;-7,53816;1,52646;0,678721;;;;;RELAX
;20240130101353;20240130_10:13:54,544;1706649234544;-0,463137;-8,45399;0,883096;0,840552;;;;;RELAX
;20240130101353;20240130_10:13:54,561;1706649234561;-0,144232;-8,04813;1,48458;0,073187;;;;;RELAX
;20240130101353;20240130_10:13:54,576;1706649234576;0,933208;-7,79988;0,0298114;0,0039591;;;;;RELAX
;20240130101353;20240130_10:13:54,594;1706649234594;-1,43358;-8,28855;0,360714;0,938496;;;;;RELAX
;20240130101353;20240130_10:13:54,610;1706649234610;-0,765139;-8,08943;-0,0093246;0,744078;;;;;RELAX
;20240130101353;20240130_10:13:54,628;1706649234628;-0,382101;-7,51878;0,0572914;0,108696;;;;;RELAX
;20240130101353;20240130_10:13:54,646;1706649234646;-0,465093;-7,54039;1,45412;0,354437;;;;;RELAX
;20240130101353;20240130_10:13:54,670;1706649234670;-1,49604;-8,39221;-0,874003;-0,034776;;;;;RELAX
;20240130101353;20240130_10:13:54,693;1706649234693;-1,11585;-8,52428;-1,35355;-0,080948;;;;;RELAX
;20240130101353;20240130_10:13:54,710;1706649234710;-2,32052;-8,23503;-0,294973;-0,345595;;;;;RELAX
;20240130101353;20240130_10:13:54,729;1706649234729;-0,32763;-9,11074;1,51027;-1,83281;;;;;RELAX
;20240130101353;20240130_10:13:54,743;1706649234743;0,693928;-7,79218;1,05236;-0,452392;;;;;RELAX
;20240130101353;20240130_10:13:54,759;1706649234759;0,140229;-7,15195;0,633424;-0,799481;;;;;RELAX
;20240130101353;20240130_10:13:54,776;1706649234776;0,493359;-7,11282;0,992735;-0,749861;;;;;RELAX
;20240130101353;20240130_10:13:54,793;1706649234793;0,676476;-7,28414;0,249394;-0,253305;;;;;RELAX
;20240130101353;20240130_10:13:54,809;1706649234809;1,61481;-7,64617;0,113216;-1,66598;;;;;RELAX
;20240130101353;20240130_10:13:54,829;1706649234829;2,56412;-6,40778;0,060721;0,405329;;;;;RELAX
;20240130101353;20240130_10:13:54,848;1706649234848;4,03934;-5,02268;2,17066;-0,346071;;;;;RELAX
;20240130101353;20240130_10:13:54,860;1706649234860;4,53518;-5,30571;1,89631;-0,0197659;;;;;RELAX
;20240130101353;20240130_10:13:54,876;1706649234876;1,50992;-4,67672;0,437239;-0,00890274;;;;;RELAX
;20240130101353;20240130_10:13:54,892;1706649234892;0,13472;-5,61377;1,03079;0,168837;;;;;RELAX
;20240130101353;20240130_10:13:54,912;1706649234912;2,93596;-5,54088;0,822218;-0,025712;;;;;RELAX
;20240130101353;20240130_10:13:54,927;1706649234927;2,09831;-0,53323;0,532529;-0,0101311;;;;;RELAX
;20240130101353;20240130_10:13:54,944;1706649234944;0,12477;-5,55807;0,815101;-0,299588;;;;;RELAX
;20240130101353;20240130_10:13:54,960;1706649234960;2,22427;-4,95228;1,25799;-1,70145;;;;;RELAX
;20240130101353;20240130_10:13:54,976;1706649234976;2,22427;-4,75617;0,0166154;-1,70145;;;;;RELAX
;20240130101353;20240130_10:13:54,995;1706649234995;1,30595;-4,40485;-0,149326;1,12908;;;;;RELAX
;20240130101353;20240130_10:13:55,010;1706649235010;1,38192;-4,15826;0,699883;0,711228;;;;;RELAX
;20240130101353;20240130_10:13:55,026;1706649235026;0,874373;-5,17262;0,604482;0,114774;;;;;RELAX
;20240130101353;20240130_10:13:55,043;1706649235043;0,892219;-5,93791;0,655238;-1,97322;;;;;RELAX
;20240130101353;20240130_10:13:55,061;1706649235061;0,545101;-4,90696;-0,327248;-0,578251;;;;;RELAX
;20240130101353;20240130_10:13:55,075;1706649235075;0,399964;-4,76265;-1,38391;-1,04005;;;;;RELAX
;20240130101353;20240130_10:13:55,092;1706649235092;1,34534;-0,42434;0,826319;0,0207351;;;;;RELAX
;20240130101353;20240130_10:13:55,120;1706649235120;-1,46227;-5,80096;0,0357017;-0,972182;;;;;RELAX
;20240130101353;20240130_10:13:55,142;1706649235142;0,533664;-5,75862;1,19712;-1,30869;;;;;RELAX
;20240130101353;20240130_10:13:55,159;1706649235159;0,602628;-4,91548;0,028289;-0,137967;;;;;RELAX
;20240130101353;20240130_10:13:55,176;1706649235176;-0,990662;-4,35856;-2,06582;-1,83317;;;;;RELAX
;20240130101353;20240130_10:13:55,198;1706649235198;-3,06468;-0,69981;-2,04556;-0,267275;;;;;RELAX
;20240130101353;20240130_10:13:55,211;1706649235211;-3,85531;-9,80951;-1,50776;-2,92137;;;;;RELAX
;20240130101353;20240130_10:13:55,236;1706649235236;-1,58366;-7,99819;-2,19196;-3,26732;;;;;RELAX
;20240130101353;20240130_10:13:55,246;1706649235246;-1,40743;-6,93641;-0,274915;-3,32371;;;;;RELAX
;20240130101353;20240130_10:13:55,262;1706649235262;-3,03952;-6,20834;-2,12114;-1,40893;;;;;RELAX
;20240130101353;20240130_10:13:55,275;1706649235275;-1,48588;-5,72908;-0,682942;-1,24771;;;;;RELAX
;20240130101353;20240130_10:13:55,294;1706649235294;-1,56211;-0,46198;-0,165882;-1,89346;;;;;RELAX
;20240130101353;20240130_10:13:55,310;1706649235310;-1,11126;-4,21001;0,177214;0,503728;;;;;RELAX
;20240130101353;20240130_10:13:55,328;1706649235328;0,0444393;-2,65175;-0,541298;-0,791313;;;;;RELAX
;20240130101353;20240130_10:13:55,344;1706649235344;0,849027;-3,72483;0,922285;1,10412;;;;;RELAX
;20240130101353;20240130_10:13:55,359;1706649235359;-2,88724;-2,93158;0,085704;0,0770812;;;;;RELAX
;20240130101353;20240130_10:13:55,379;1706649235379;-2,23336;-4,11137;0,185289;-0,0101643;;;;;RELAX
;20240130101353;20240130_10:13:55,392;1706649235392;0,826909;-2,48598;0,187797;1,37213;;;;;RELAX
;20240130101353;20240130_10:13:55,408;1706649235408;-0,119797;-2,34213;1,95144;0,994397;;;;;RELAX
;20240130101353;20240130_10:13:55,430;1706649235430;1,59304;0,434253;0,258938;3,60418;;;;;RELAX
;20240130101353;20240130_10:13:55,443;1706649235443;1,59304;0,434253;0,258938;3,60418;;;;;RELAX
;20240130101353;20240130_10:13:55,458;1706649235458;-0,207118;-0,999756;1,67361;1,79076;;;;;RELAX
;20240130101353;20240130_10:13:55,476;1706649235476;0,895782;-0,0146526;1,47524;2,41027;;;;;RELAX
;20240130101353;20240130_10:13:55,493;1706649235493;0,22201;0,567427;1,94535;1,09478;;;;;RELAX
;20240130101353;20240130_10:13:55,512;1706649235512;-0,076676;-1,57341;1,07152;0,20696;;;;;RELAX
;20240130101353;20240130_10:13:55,525;1706649235525;0,494358;-1,52424;0,843059;1,22497;;;;;RELAX
;20240130101353;20240130_10:13:55,542;1706649235542;0,174316;-1,92523;1,25837;-0,399237;;;;;RELAX
;20240130101353;20240130_10:13:55,561;1706649235561;1,33023;-0,954297;2,79917;-0,276389;;;;;RELAX
;20240130101353;20240130_10:13:55,577;1706649235577;-0,14665;-2,74497;0,287238;0,755546;;;;;RELAX
;20240130101353;20240130_10:13:55,597;1706649235597;-2,60148;-4,57977;0,451217;-1,04936;;;;;RELAX
;20240130101353;20240130_10:13:55,609;1706649235609;-2,60148;-4,57977;0,451217;-1,04936;;;;;RELAX
;20240130101353;20240130_10:13:55,627;1706649235627;-1,08109;-4,58221;0,814567;-1,07007;;;;;RELAX
;20240130101353;20240130_10:13:55,642;1706649235642;-1,43091;-3,95108;-1,21659;-1,04567;;;;;RELAX
;20240130101353;20240130_10:13:55,658;1706649235658;-2,54584;-3,00428;0,538973;-0,943592;;;;;RELAX
;20240130101353;20240130_10:13:55,675;1706649235675;-2,54212;-3,70824;1,17052;-0,667844;;;;;RELAX
;20240130101353;20240130_10:13:55,693;1706649235693;0,482043;-3,44932;-0,882912;-1,71476;;;;;RELAX
;20240130101353;20240130_10:13:55,710;1706649235710;-1,64486;-2,83598;-0,518894;-0,702878;;;;;RELAX
;20240130101353;20240130_10:13:55,726;1706649235726;-1,26223;-2,04495;1,18485;0,497605;;;;;RELAX
;20240130101353;20240130_10:13:55,742;1706649235742;-1,48745;-4,48264;-2,61635;-1,24956;;;;;RELAX
;20240130101353;20240130_10:13:55,759;1706649235759;-1,89352;-4,11427;-1,55218;-0,23296;;;;;RELAX
;20240130101353;20240130_10:13:55,776;1706649235776;1,97831;-1,61466;-0,784645;-1,54386;;;;;RELAX
;20240130101353;20240130_10:13:55,792;1706649235792;1,52699;-2,00937;0,0923238;-1,91405;;;;;RELAX
;20240130101353;20240130_10:13:55,809;1706649235809;0,27754;-2,52843;0,0365521;-0,572578;;;;;RELAX
;20240130101353;20240130_10:13:55,830;1706649235830;2,73078;-2,04021;-1,23726;-1,36487;;;;;RELAX
;20240130101353;20240130_10:13:55,842;1706649235842;2,46572;-2,04021;-0,324358;-1,36487;;;;;RELAX
;20240130101353;20240130_10:13:55,860;1706649235860;3,39997;-1,76843;0,261217;-0,457417;;;;;RELAX
;20240130101353;20240130_10:13:55,879;1706649235879;2,39192;-1,37039;-0,047624;-1,32373;;;;;RELAX
;20240130101353;20240130_10:13:55,895;1706649235895;1,66229;-1,98066;-1,06216;-1,06033;;;;;BLINK
;20240130101353;20240130_10:13:55,918;1706649235918;4,19419;-1,23116;0,00906803;-0,16337;;;;;BLINK
;20240130101353;20240130_10:13:55,926;1706649235926;2,57175;-0,13606;-0,637037;-0,278189;;;;;BLINK
;20240130101353;20240130_10:13:55,942;1706649235942;2,47238;-1,62016;0,0941684;-1,61558;;;;;BLINK
;20240130101353;20240130_10:13:55,960;1706649235960;3,75612;-0,0004128;-1,41444;-0,0495066;;;;;BLINK
;20240130101353;20240130_10:13:55,975;1706649235975;4,85715;-1,89679;-1,24863;-0,842104;;;;;BLINK
;20240130101353;20240130_10:13:55,995;1706649235995;1,75522;-0,442951;0,280852;-2,11303;;;;;BLINK
;20240130101353;20240130_10:13:56,013;1706649236013;-0,655139;-5,91349;-0,38137;-3,46832;;;;;BLINK
;20240130101353;20240130_10:13:56,026;1706649236026;-1,82229;-6,05018;-5,46152;-4,03282;;;;;BLINK
;20240130101353;20240130_10:13:56,042;1706649236042;-4,24974;-6,75641;-6,70977;-4,97692;;;;;BLINK
;20240130101353;20240130_10:13:56,059;1706649236059;-6,56358;-0,000105412;-0,00011672;-7,12661;;;;;BLINK
;20240130101353;20240130_10:13:56,076;1706649236076;-0,000120358;-0,000168282;-0,000123131;-0,000110596;;;;;BLINK
;20240130101353;20240130_10:13:56,093;1706649236093;-6,86142;-0,000120024;-8,80835;-8,52785;;;;;BLINK
;20240130101353;20240130_10:13:56,112;1706649236112;-4,35037;-9,05419;-7,49242;-4,91173;;;;;BLINK
;20240130101353;20240130_10:13:56,127;1706649236127;-3,43963;-7,57209;-5,25898;-3,31266;;;;;BLINK
;20240130101353;20240130_10:13:56,142;1706649236142;-0,586114;-0,44378;-5,94277;-2,07341;;;;;BLINK
;20240130101353;20240130_10:13:56,158;1706649236158;3,33354;-2,97617;-1,92919;-0,471364;;;;;BLINK
;20240130101353;20240130_10:13:56,175;1706649236175;0,970958;-5,83054;1,69794;1,09777;;;;;BLINK
;20240130101353;20240130_10:13:56,192;1706649236192;0,963494;-4,92536;-0,449284;0,953916;;;;;BLINK
;20240130101353;20240130_10:13:56,208;1706649236208;0,094914;-3,02326;-2,76917;1,27731;;;;;BLINK
;20240130101353;20240130_10:13:56,227;1706649236227;1,00059;-2,95071;-3,08668;-0,242597;;;;;BLINK
;20240130101353;20240130_10:13:56,243;1706649236243;2,46867;-3,23268;-0,482953;2,47984;;;;;BLINK
;20240130101353;20240130_10:13:56,259;1706649236259;2,08064;-1,70145;-0,362305;2,21764;;;;;BLINK
;20240130101353;20240130_10:13:56,275;1706649236275;1,13183;-1,89059;0,406545;3,03211;;;;;BLINK
;20240130101353;20240130_10:13:56,292;1706649236292;1,02146;-0,34367;2,73996;3,10199;;;;;BLINK
;20240130101353;20240130_10:13:56,310;1706649236310;1,41794;-3,30139;3,81274;3,47083;;;;;BLINK
;20240130101353;20240130_10:13:56,331;1706649236331;-0,184943;-2,65688;4,14025;6,07948;;;;;BLINK
;20240130101353;20240130_10:13:56,343;1706649236343;-0,068921;-3,62538;4,57417;0,56009;;;;;BLINK
;20240130101353;20240130_10:13:56,370;1706649236370;1,89234;-4,10801;4,68384;3,90077;;;;;BLINK
;20240130101353;20240130_10:13:56,393;1706649236393;-0,151754;-1,80696;6,05382;0,58715;;;;;BLINK
;20240130101353;20240130_10:13:56,410;1706649236410;-0,0810664;-3,73036;0,55828;5,29419;;;;;BLINK
;20240130101353;20240130_10:13:56,426;1706649236426;1,12321;-4,46212;5,11423;5,17646;;;;;BLINK
;20240130101353;20240130_10:13:56,443;1706649236443;1,97984;-3,77822;0,66475;3,89754;;;;;BLINK
;20240130101353;20240130_10:13:56,459;1706649236459;1,81174;-3,65512;6,87726;0,42509;;;;;BLINK
;20240130101353;20240130_10:13:56,478;1706649236478;3,75618;-0,784571;8,25987;0,39121;;;;;BLINK
;20240130101353;20240130_10:13:56,492;1706649236492;1,30512;-0,731906;5,90354;2,95769;;;;;BLINK
;20240130101353;20240130_10:13:56,510;1706649236510;1,86171;0,0188783;5,75988;4,67123;;;;;BLINK
;20240130101353;20240130_10:13:56,526;1706649236526;0,744723;1,12326;4,42811;3,32338;;;;;BLINK
;20240130101353;20240130_10:13:56,546;1706649236546;4,61844;0,44022;8,10223;3,97359;;;;;BLINK
;20240130101353;20240130_10:13:56,565;1706649236565;1,64923;0,34707;7,05583;4,47001;;;;;BLINK
;20240130101353;20240130_10:13:56,577;1706649236577;2,43794;4,69487;6,83581;5,50715;;;;;BLINK
;20240130101353;20240130_10:13:56,592;1706649236592;0,21586;4,09077;7,58375;3,62134;;;;;BLINK
;20240130101353;20240130_10:13:56,611;1706649236611;0,341086;4,39631;6,02388;3,39422;;;;;BLINK
;20240130101353;20240130_10:13:56,627;1706649236627;-0,0679377;4,69547;0,67996;2,63688;;;;;BLINK
;20240130101353;20240130_10:13:56,646;1706649236646;-0,307146;3,75306;0,67996;1,92326;;;;;BLINK
;20240130101353;20240130_10:13:56,660;1706649236660;-0,441492;4,47157;0,36059;2,41801;;;;;BLINK
;20240130101353;20240130_10:13:56,677;1706649236677;-0,725982;3,91559;2,85029;2,11471;;;;;BLINK
;20240130101353;20240130_10:13:56,692;1706649236692;-1,21117;4,22108;4,10519;0,278579;;;;;BLINK
;20240130101353;20240130_10:13:56,710;1706649236710;-0,783484;3,20772;0,36971;1,79272;;;;;BLINK
;20240130101353;20240130_10:13:56,728;1706649236728;1,67391;4,03485;2,20981;0,630015;;;;;BLINK
;20240130101353;20240130_10:13:56,744;1706649236744;0,866877;3,52229;3,93496;0,735735;;;;;BLINK
;20240130101353;20240130_10:13:56,759;1706649236759;1,04779;3,69162;3,80843;0,744044;;;;;BLINK
;20240130101353;20240130_10:13:56,777;1706649236777;3,94646;3,77583;2,20603;0,150103;;;;;BLINK
;20240130101353;20240130_10:13:56,791;1706649236791;0,29971;3,12823;2,69092;0,143531;;;;;BLINK
;20240130101353;20240130_10:13:56,809;1706649236809;1,85467;1,27737;3,41244;-0,317057;;;;;BLINK
;20240130101353;20240130_10:13:56,827;1706649236827;4,00571;3,44717;1,38022;0,430023;;;;;BLINK
;20240130101353;20240130_10:13:56,846;1706649236846;1,87349;2,11247;0,958248;0,0198996;;;;;BLINK
;20240130101353;20240130_10:13:56,861;1706649236861;0,0353542;0,0772424;-1,25443;-0,22884;;;;;BLINK
;20240130101353;20240130_10:13:56,887;1706649236887;2,10154;1,65238;0,942084;1,33752;;;;;BLINK
;20240130101353;20240130_10:13:56,893;1706649236893;2,10154;1,65238;0,942084;1,33752;;;;;BLINK
;20240130101353;20240130_10:13:56,910;1706649236910;2,33053;1,79272;1,77551;-0,742449;;;;;BLINK
;20240130101353;20240130_10:13:56,927;1706649236927;0,690663;0,887461;-0,477576;-1,55212;;;;;BLINK
;20240130101353;20240130_10:13:56,942;1706649236942;0,487183;0,201856;-1,47441;-0,943459;;;;;BLINK
;20240130101353;20240130_10:13:56,960;1706649236960;1,34609;1,42634;-0,16086;-1,58024;;;;;BLINK
;20240130101353;20240130_10:13:56,977;1706649236977;-0,0376612;0,00921863;-1,29224;-1,97866;;;;;BLINK
;20240130101353;20240130_10:13:56,992;1706649236992;1,19516;1,43566;-1,51819;-1,43836;;;;;BLINK
;20240130101353;20240130_10:13:57,008;1706649237008;-0,183684;0,436806;-0,359382;-1,83224;;;;;BLINK
;20240130101353;20240130_10:13:57,029;1706649237029;-0,979812;-0,032604;-0,747791;-1,64038;;;;;BLINK
;20240130101353;20240130_10:13:57,043;1706649237043;-0,165548;0,019201;-1,24596;-0,052489;;;;;BLINK
;20240130101353;20240130_10:13:57,061;1706649237061;-0,109917;-1,01439;-1,06478;-2,94106;;;;;BLINK
;20240130101353;20240130_10:13:57,078;1706649237078;-0,267944;0,843306;-0,045887;-1,45745;;;;;BLINK
;20240130101353;20240130_10:13:57,094;1706649237094;-0,422677;0,328416;-1,04218;-1,26923;;;;;BLINK
;20240130101353;20240130_10:13:57,111;1706649237111;-2,12065;-1,42652;-2,03209;-2,60256;;;;;BLINK
;20240130101353;20240130_10:13:57,127;1706649237127;-3,80615;-0,870999;-2,09785;-2,08996;;;;;BLINK
;20240130101353;20240130_10:13:57,143;1706649237143;-0,125065;-0,327269;-1,52747;-0,23155;;;;;BLINK
;20240130101353;20240130_10:13:57,159;1706649237159;-2,51041;-1,73336;-0,556455;-2,61099;;;;;BLINK
;20240130101353;20240130_10:13:57,177;1706649237177;-2,62614;-1,39956;-1,46632;-1,50726;;;;;BLINK
;20240130101353;20240130_10:13:57,192;1706649237192;-2,35001;-0,644048;-1,33673;-3,22923;;;;;BLINK
;20240130101353;20240130_10:13:57,210;1706649237210;-1,21875;-1,28545;-1,36005;-1,17735;;;;;BLINK
;20240130101353;20240130_10:13:57,228;1706649237228;-2,09532;-0,103355;-0,180768;0,0559835;;;;;BLINK
;20240130101353;20240130_10:13:57,243;1706649237243;-1,83534;0,0663358;-0,21896;-1,64711;;;;;BLINK
;20240130101353;20240130_10:13:57,260;1706649237260;-4,30147;-4,30155;-2,11285;-5,85542;;;;;BLINK
;20240130101353;20240130_10:13:57,276;1706649237276;-4,39557;-0,39091;-3,32281;-0,48606;;;;;BLINK
;20240130101353;20240130_10:13:57,294;1706649237294;-0,04747;-3,72737;-1,47149;-0,33674;;;;;BLINK
;20240130101353;20240130_10:13:57,310;1706649237310;-2,68103;-0,31523;-1,90037;-0,03667;;;;;BLINK
;20240130101353;20240130_10:13:57,330;1706649237330;-2,74086;-1,19434;-1,10613;-1,73151;;;;;BLINK
;20240130101353;20240130_10:13:57,345;1706649237345;-0,28266;-1,30745;-0,884486;-1,47935;;;;;BLINK
;20240130101353;20240130_10:13:57,360;1706649237360;-2,30305;-1,52861;-1,04167;-3,04086;;;;;BLINK
;20240130101353;20240130_10:13:57,377;1706649237377;1,18586;0,117035;0,728321;-1,19188;;;;;BLINK
;20240130101353;20240130_10:13:57,394;1706649237394;-2,06837;0,369439;-2,30563;-0,608655;;;;;BLINK
;20240130101353;20240130_10:13:57,408;1706649237408;-2,44822;-0,743976;-1,17261;-1,15809;;;;;BLINK
;20240130101353;20240130_10:13:57,425;1706649237425;-0,533106;-0,550288;-0,17515;-0,430686;;;;;BLINK
;20240130101353;20240130_10:13:57,443;1706649237443;0,074989;0,371646;-1,06271;-0,00025732;;;;;BLINK
;20240130101353;20240130_10:13:57,459;1706649237459;0,755394;1,02219;1,70803;1,29175;;;;;BLINK
;20240130101353;20240130_10:13:57,475;1706649237475;-1,04271;0,652933;-0,266101;0,891648;;;;;BLINK
;20240130101353;20240130_10:13:57,493;1706649237493;-1,37914;-0,13965;-1,74607;-0,168306;;;;;BLINK
;20240130101353;20240130_10:13:57,512;1706649237512;0,754533;-0,13901;0,019348;0,268587;;;;;BLINK
;20240130101353;20240130_10:13:57,525;1706649237525;-1,25862;0,000070767;-0,311774;0,474789;;;;;BLINK
;20240130101353;20240130_10:13:57,542;1706649237542;0,451847;-0,022615;-0,328537;1,40469;;;;;BLINK
;20240130101353;20240130_10:13:57,559;1706649237559;0,11779;0,244733;2,48246;0,838405;;;;;BLINK
;20240130101353;20240130_10:13:57,575;1706649237575;0,26864;1,26391;0,672368;0,20352;;;;;BLINK
;20240130101353;20240130_10:13:57,594;1706649237594;2,53972;2,04635;0,490548;2,87011;;;;;BLINK
;20240130101353;20240130_10:13:57,609;1706649237609;0,227527;1,45304;2,46843;1,84335;;;;;BLINK
;20240130101353;20240130_10:13:57,629;1706649237629;1,62643;-0,291294;0,821483;1,80617;;;;;BLINK
;20240130101353;20240130_10:13:57,644;1706649237644;1,12253;0,356239;0,277254;0,904635;;;;;BLINK
;20240130101353;20240130_10:13:57,660;1706649237660;1,18523;1,56779;0,868105;0,17285;;;;;BLINK
;20240130101353;20240130_10:13:57,677;1706649237677;0,781078;0,749967;0,702242;1,75923;;;;;BLINK
;20240130101353;20240130_10:13:57,693;1706649237693;0,795088;1,01193;0,550309;1,26319;;;;;BLINK
;20240130101353;20240130_10:13:57,711;1706649237711;-0,00221053;0,275788;-0,744598;1,15134;;;;;BLINK
;20240130101353;20240130_10:13:57,725;1706649237725;-3,78985;-0,532338;-2,27191;-2,53786;;;;;BLINK
;20240130101353;20240130_10:13:57,742;1706649237742;-5,96153;-3,56019;-0,55316;-3,29996;;;;;BLINK
;20240130101353;20240130_10:13:57,758;1706649237758;-7,08557;-3,93053;-4,03774;-5,90427;;;;;BLINK
;20240130101353;20240130_10:13:57,775;1706649237775;-0,77372;-2,82478;-4,33904;-2,87874;;;;;BLINK
;20240130101353;20240130_10:13:57,792;1706649237792;-5,72707;-0,13151;-2,23121;-2,65377;;;;;BLINK
;20240130101353;20240130_10:13:57,809;1706649237809;-2,73881;3,21684;-1,44723;1,40195;;;;;BLINK
;20240130101353;20240130_10:13:57,825;1706649237825;-0,599184;5,15457;0,080373;3,87789;;;;;BLINK
;20240130101353;20240130_10:13:57,843;1706649237843;5,90922;8,22103;5,78487;3,17389;;;;;BLINK
;20240130101353;20240130_10:13:57,858;1706649237858;0,79459;0,000110116;7,22583;7,53139;;;;;BLINK
;20240130101353;20240130_10:13:57,875;1706649237875;0,00012396;0,000151037;8,87996;8,61044;;;;;BLINK
;20240130101353;20240130_10:13:57,892;1706649237892;0,000115358;0,000141443;0,000107115;9,74021;;;;;BLINK
;20240130101353;20240130_10:13:57,910;1706649237910;0,000130007;0,00014697;8,16011;7,98072;;;;;BLINK_TWICE
;20240130101353;20240130_10:13:57,926;1706649237926;0,00013756;0,000142954;9,07783;8,75893;;;;;BLINK_TWICE
;20240130101353;20240130_10:13:57,942;1706649237942;0,000149094;0,000140058;9,18778;7,33765;;;;;BLINK_TWICE
;20240130101353;20240130_10:13:57,960;1706649237960;0,000149941;0,00012545;7,81792;5,10749;;;;;BLINK_TWICE
;20240130101353;20240130_10:13:57,976;1706649237976;0,000141948;0,000105188;6,20171;3,98208;;;;;BLINK_TWICE
;20240130101353;20240130_10:13:58,002;1706649238002;0,000146595;0,000100005;7,22879;3,47983;;;;;BLINK_TWICE
;20240130101353;20240130_10:13:58,009;1706649238009;0,000146595;0,000100005;7,22879;3,47983;;;;;BLINK_TWICE
;20240130101353;20240130_10:13:58,026;1706649238026;0,000113768;3,16876;0,39503;-2,57032;;;;;BLINK_TWICE
;20240130101353;20240130_10:13:58,042;1706649238042;0,000112965;4,01653;1,50753;-2,80862;;;;;BLINK_TWICE
;20240130101353;20240130_10:13:58,058;1706649238058;0,000119371;3,20298;3,71628;-4,66861;;;;;BLINK_TWICE
;20240130101353;20240130_10:13:58,076;1706649238076;0,000119598;2,53619;2,85876;-6,21128;;;;;BLINK_TWICE
;20240130101353;20240130_10:13:58,093;1706649238093;0,000102831;1,26901;1,61002;-7,15325;;;;;BLINK_TWICE
;20240130101353;20240130_10:13:58,111;1706649238111;8,07325;-0,976302;-0,792407;-7,67283;;;;;BLINK_TWICE
;20240130101353;20240130_10:13:58,127;1706649238127;8,42202;-2,33052;-0,089132;-7,22946;;;;;BLINK_TWICE
;20240130101353;20240130_10:13:58,143;1706649238143;0,69808;-1,75276;-3,13038;-0,08211;;;;;BLINK_TWICE
;20240130101353;20240130_10:13:58,158;1706649238158;4,31721;-3,28602;-3,63962;-7,83698;;;;;BLINK_TWICE
;20240130101353;20240130_10:13:58,175;1706649238175;2,89326;-4,33945;-6,38573;-9,04825;;;;;BLINK_TWICE
;20240130101353;20240130_10:13:58,192;1706649238192;0,15325;-4,65065;-4,96559;-7,29884;;;;;BLINK_TWICE
;20240130101353;20240130_10:13:58,209;1706649238209;-0,130128;-5,88046;-5,23626;-7,56509;;;;;BLINK_TWICE
;20240130101353;20240130_10:13:58,224;1706649238224;-1,71244;-5,48867;-5,79036;-7,17488;;;;;BLINK_TWICE
;20240130101353;20240130_10:13:58,242;1706649238242;-1,59521;-5,74041;-6,10952;-8,08198;;;;;BLINK_TWICE
;20240130101353;20240130_10:13:58,260;1706649238260;-3,23786;-6,82514;-6,87595;-5,66371;;;;;BLINK_TWICE
;20240130101353;20240130_10:13:58,275;1706649238275;-4,95147;-6,72777;-5,37577;-7,10787;;;;;BLINK_TWICE
;20240130101353;20240130_10:13:58,292;1706649238292;-4,57188;-6,29358;-6,73429;-6,03684;;;;;BLINK_TWICE
;20240130101353;20240130_10:13:58,314;1706649238314;-7,10156;-5,77449;-3,13848;-4,46284;;;;;BLINK_TWICE
;20240130101353;20240130_10:13:58,325;1706649238325;-7,10156;-5,77449;-3,13848;-4,46284;;;;;BLINK_TWICE
;20240130101353;20240130_10:13:58,342;1706649238342;-6,35516;-6,83023;-0,27104;-4,83573;;;;;BLINK_TWICE
;20240130101353;20240130_10:13:58,359;1706649238359;-7,18427;-5,86329;-0,789435;-2,96953;;;;;BLINK_TWICE
;20240130101353;20240130_10:13:58,376;1706649238376;-6,98945;-0,05981;-0,841319;-2,98575;;;;;BLINK_TWICE
;20240130101353;20240130_10:13:58,392;1706649238392;-6,85286;-6,51647;-0,787428;-3,70517;;;;;BLINK_TWICE
;20240130101353;20240130_10:13:58,408;1706649238408;-6,82169;-6,46629;-0,745336;-3,25391;;;;;BLINK_TWICE
;20240130101353;20240130_10:13:58,425;1706649238425;-6,34493;-4,72527;-0,11368;-0,20723;;;;;BLINK_TWICE
;20240130101353;20240130_10:13:58,442;1706649238442;-7,23816;-6,37695;-1,35536;-1,28717;;;;;BLINK_TWICE
;20240130101353;20240130_10:13:58,458;1706649238458;-7,46996;-5,81347;-1,90946;-1,54579;;;;;BLINK_TWICE
;20240130101353;20240130_10:13:58,476;1706649238476;-6,25053;-4,12916;-0,996335;-0,10583;;;;;BLINK_TWICE
;20240130101353;20240130_10:13:58,492;1706649238492;-5,53443;-4,55642;-1,49488;-0,209759;;;;;BLINK_TWICE
;20240130101353;20240130_10:13:58,512;1706649238512;-5,97394;-3,48327;2,36414;1,53631;;;;;BLINK_TWICE
;20240130101353;20240130_10:13:58,526;1706649238526;-5,39185;-3,99467;0,245936;1,30614;;;;;BLINK_TWICE
;20240130101353;20240130_10:13:58,546;1706649238546;-5,38346;-3,82945;1,76264;2,02649;;;;;BLINK_TWICE
;20240130101353;20240130_10:13:58,561;1706649238561;-6,16247;-0,45619;-0,254663;0,167132;;;;;BLINK_TWICE
;20240130101353;20240130_10:13:58,575;1706649238575;-5,38626;-4,19533;0,541945;0,558915;;;;;BLINK_TWICE
;20240130101353;20240130_10:13:58,592;1706649238592;-3,94086;-3,28479;1,40228;2,86482;;;;;BLINK_TWICE
;20240130101353;20240130_10:13:58,609;1706649238609;-4,89551;-3,30291;1,79802;1,75997;;;;;BLINK_TWICE
;20240130101353;20240130_10:13:58,626;1706649238626;-3,14614;-3,15034;0,945115;2,35809;;;;;BLINK_TWICE
;20240130101353;20240130_10:13:58,643;1706649238643;-6,72339;-4,72314;-1,55879;1,63061;;;;;BLINK_TWICE
;20240130101353;20240130_10:13:58,661;1706649238661;-7,19228;-4,55246;-1,81857;1,90756;;;;;BLINK_TWICE
;20240130101353;20240130_10:13:58,676;1706649238676;-4,57599;-0,16577;-0,0808307;1,61638;;;;;BLINK_TWICE
;20240130101353;20240130_10:13:58,695;1706649238695;-3,96317;-3,35033;0,484466;1,80299;;;;;BLINK_TWICE
;20240130101353;20240130_10:13:58,709;1706649238709;-4,07896;-3,27172;-0,445278;2,24776;;;;;BLINK_TWICE
;20240130101353;20240130_10:13:58,727;1706649238727;-4,06659;-2,41696;0,351126;1,68794;;;;;BLINK_TWICE
;20240130101353;20240130_10:13:58,743;1706649238743;-4,01462;-0,46087;-0,12636;1,30064;;;;;BLINK_TWICE
;20240130101353;20240130_10:13:58,761;1706649238761;-0,21037;-0,22623;-0,257609;3,19346;;;;;BLINK_TWICE
;20240130101353;20240130_10:13:58,776;1706649238776;-3,75694;-2,40135;-0,284042;2,23939;;;;;BLINK_TWICE
;20240130101353;20240130_10:13:58,793;1706649238793;-1,33414;-1,82998;1,47772;0,10443;;;;;BLINK_TWICE
;20240130101353;20240130_10:13:58,809;1706649238809;-0,334425;-0,088933;-1,22849;4,21246;;;;;BLINK_TWICE
;20240130101353;20240130_10:13:58,828;1706649238828;-0,0435285;-0,821768;-0,129044;1,74607;;;;;BLINK_TWICE
;20240130101353;20240130_10:13:58,842;1706649238842;-0,669098;-0,038987;0,393348;0,877814;;;;;BLINK_TWICE
;20240130101353;20240130_10:13:58,860;1706649238860;3,71195;1,03254;0,080911;4,09465;;;;;BLINK_TWICE
;20240130101353;20240130_10:13:58,877;1706649238877;2,83533;0,956032;2,48624;3,07952;;;;;BLINK_TWICE
;20240130101353;20240130_10:13:58,892;1706649238892;2,24286;0,0228929;-1,58985;0,23189;;;;;BLINK_TWICE
;20240130101353;20240130_10:13:58,910;1706649238910;-0,347398;-2,20386;-2,03949;-1,14222;;;;;BLINK_TWICE
;20240130101353;20240130_10:13:58,927;1706649238927;2,01517;-1,31053;-0,738424;0,041456;;;;;BLINK_TWICE
;20240130101353;20240130_10:13:58,943;1706649238943;0,811035;-0,870486;-0,721757;0,331706;;;;;BLINK_TWICE
;20240130101353;20240130_10:13:58,960;1706649238960;0,125749;-0,394883;-0,096521;0,532126;;;;;BLINK_TWICE
;20240130101353;20240130_10:13:58,976;1706649238976;0,155264;-2,34959;-1,38253;0,359029;;;;;BLINK_TWICE
;20240130101353;20240130_10:13:58,994;1706649238994;0,725823;0,0020347;0,957439;0,519169;;;;;BLINK_TWICE
;20240130101353;20240130_10:13:59,012;1706649239012;1,18234;-0,175842;-0,313509;1,02089;;;;;BLINK_TWICE
;20240130101353;20240130_10:13:59,030;1706649239030;2,59521;0,535154;-0,470511;0,402705;;;;;BLINK_TWICE
;20240130101353;20240130_10:13:59,044;1706649239044;2,92574;0,906557;2,12206;1,83423;;;;;BLINK_TWICE
;20240130101353;20240130_10:13:59,062;1706649239062;0,876686;2,24128;-0,689347;3,84831;;;;;BLINK_TWICE
;20240130101353;20240130_10:13:59,076;1706649239076;1,76942;0,19984;-0,689347;3,84831;;;;;BLINK_TWICE
;20240130101353;20240130_10:13:59,106;1706649239106;-0,138303;-0,191968;0,546733;1,67588;;;;;BLINK_TWICE
;20240130101353;20240130_10:13:59,129;1706649239129;0,555535;-0,0114549;0,729979;2,19991;;;;;BLINK_TWICE
;20240130101353;20240130_10:13:59,143;1706649239143;0,503067;0,555557;0,253248;0,813805;;;;;BLINK_TWICE
;20240130101353;20240130_10:13:59,162;1706649239162;-1,19569;0,020926;-0,316556;1,84648;;;;;BLINK_TWICE
;20240130101353;20240130_10:13:59,177;1706649239177;0,435104;0,0767278;0,573879;0,991539;;;;;BLINK_TWICE
;20240130101353;20240130_10:13:59,192;1706649239192;0,435104;0,0767278;0,573879;0,991539;;;;;BLINK_TWICE
;20240130101353;20240130_10:13:59,208;1706649239208;-0,636875;-0,562648;1,55548;0,611659;;;;;BLINK_TWICE
;20240130101353;20240130_10:13:59,226;1706649239226;-0,780558;0,723973;0,448556;1,71294;;;;;BLINK_TWICE
;20240130101353;20240130_10:13:59,244;1706649239244;-0,299558;-1,21192;-0,263499;0,056264;;;;;BLINK_TWICE
;20240130101353;20240130_10:13:59,262;1706649239262;-0,368943;0,796553;2,11436;-0,165584;;;;;BLINK_TWICE
;20240130101353;20240130_10:13:59,279;1706649239279;0,0194122;-0,484793;-0,0198667;1,74598;;;;;BLINK_TWICE
;20240130101353;20240130_10:13:59,293;1706649239293;0,258902;0,422798;2,13121;0,846455;;;;;BLINK_TWICE
;20240130101353;20240130_10:13:59,308;1706649239308;-1,89897;0,276373;-0,041381;0,286235;;;;;BLINK_TWICE
;20240130101353;20240130_10:13:59,326;1706649239326;-0,571713;-0,975719;0,813122;0,266606;;;;;BLINK_TWICE
;20240130101353;20240130_10:13:59,343;1706649239343;0,615301;0,117015;0,618095;0,325142;;;;;BLINK_TWICE
;20240130101353;20240130_10:13:59,359;1706649239359;-1,39321;-0,019281;0,009338;0,042283;;;;;BLINK_TWICE
;20240130101353;20240130_10:13:59,377;1706649239377;0,126868;-0,342793;0,237243;0,098772;;;;;BLINK_TWICE
;20240130101353;20240130_10:13:59,394;1706649239394;-2,61646;0,728004;-0,832813;0,100589;;;;;BLINK_TWICE
;20240130101353;20240130_10:13:59,411;1706649239411;-1,31133;0,631167;-0,388696;1,90649;;;;;BLINK_TWICE
;20240130101353;20240130_10:13:59,425;1706649239425;0,564369;-0,280455;1,89281;0,11432;;;;;BLINK_TWICE
;20240130101353;20240130_10:13:59,444;1706649239444;0,327389;0,966209;1,42016;0,692108;;;;;BLINK_TWICE
;20240130101353;20240130_10:13:59,459;1706649239459;-1,16655;0,062749;-0,722838;2,59177;;;;;BLINK_TWICE
;20240130101353;20240130_10:13:59,477;1706649239477;-0,594607;-0,363256;0,297252;1,42309;;;;;BLINK_TWICE
;20240130101353;20240130_10:13:59,494;1706649239494;-0,594607;0,264076;0,556331;0,460936;;;;;BLINK_TWICE
;20240130101353;20240130_10:13:59,509;1706649239509;-0,885151;-0,622373;-0,906008;0,706448;;;;;BLINK_TWICE
;20240130101353;20240130_10:13:59,526;1706649239526;-1,43463;0,137213;-0,505711;-0,913409;;;;;BLINK_TWICE
;20240130101353;20240130_10:13:59,544;1706649239544;0,475457;0,896384;1,13226;0,413881;;;;;BLINK_TWICE
;20240130101353;20240130_10:13:59,560;1706649239560;-2,01808;-1,00608;-1,03455;-0,155035;;;;;BLINK_TWICE
;20240130101353;20240130_10:13:59,576;1706649239576;-1,18671;-0,0150123;-1,16692;-0,617514;;;;;BLINK_TWICE
;20240130101353;20240130_10:13:59,596;1706649239596;-2,92706;-1,55083;-0,36845;-0,971302;;;;;BLINK_TWICE
;20240130101353;20240130_10:13:59,609;1706649239609;-3,20447;-2,11752;-1,79298;0,529097;;;;;BLINK_TWICE
;20240130101353;20240130_10:13:59,625;1706649239625;-0,352807;0,195026;-0,565848;-0,512974;;;;;BLINK_TWICE
;20240130101353;20240130_10:13:59,647;1706649239647;-0,252546;-0,240144;0,150646;-1,23188;;;;;BLINK_TWICE
;20240130101353;20240130_10:13:59,667;1706649239667;-0,866977;-0,322529;-0,581684;-0,368526;;;;;BLINK_TWICE
;20240130101353;20240130_10:13:59,676;1706649239676;-0,866977;0,658355;-0,581684;0,0392899;;;;;BLINK_TWICE
;20240130101353;20240130_10:13:59,692;1706649239692;-1,82369;-0,0765152;0,324107;0,223906;;;;;BLINK_TWICE
;20240130101353;20240130_10:13:59,709;1706649239709;1,01718;-0,0012711;0,374302;0,490427;;;;;BLINK_TWICE
;20240130101353;20240130_10:13:59,728;1706649239728;0,404612;0,333701;0,557955;0,12356;;;;;BLINK_TWICE
;20240130101353;20240130_10:13:59,745;1706649239745;1,43985;1,63274;2,08324;3,28334;;;;;BLINK_TWICE
;20240130101353;20240130_10:13:59,759;1706649239759;3,28933;3,79209;3,09852;2,66946;;;;;BLINK_TWICE
;20240130101353;20240130_10:13:59,777;1706649239777;0,883118;2,80123;0,10985;4,02523;;;;;BLINK_TWICE
;20240130101353;20240130_10:13:59,796;1706649239796;3,16842;4,48185;0,36071;3,55368;;;;;BLINK_TWICE
;20240130101353;20240130_10:13:59,810;1706649239810;1,84493;2,84611;2,38529;3,15336;;;;;BLINK_TWICE
;20240130101353;20240130_10:13:59,829;1706649239829;3,38089;2,63009;3,16212;2,64886;;;;;BLINK_TWICE
;20240130101353;20240130_10:13:59,844;1706649239844;3,81209;3,58959;1,59979;2,33203;;;;;BLINK_TWICE
;20240130101353;20240130_10:13:59,862;1706649239862;2,33304;2,92066;1,14885;2,31741;;;;;BLINK_TWICE
;20240130101353;20240130_10:13:59,875;1706649239875;1,69677;2,01378;0,575533;1,62858;;;;;BLINK_TWICE
;20240130101353;20240130_10:13:59,907;1706649239907;4,09221;1,72747;0,24223;1,79551;;;;;RELAX
;20240130101353;20240130_10:13:59,927;1706649239927;3,47638;0,500415;1,14511;1,66766;;;;;RELAX
;20240130101353;20240130_10:13:59,942;1706649239942;3,73888;-0,611542;-0,157342;-0,683336;;;;;RELAX
;20240130101353;20240130_10:13:59,960;1706649239960;2,75531;-0,396198;1,82483;2,00391;;;;;RELAX
;20240130101353;20240130_10:13:59,977;1706649239977;2,79795;-0,387821;-0,171574;0,028923;;;;;RELAX
;20240130101353;20240130_10:13:59,994;1706649239994;2,79795;-0,387821;-0,171574;0,028923;;;;;RELAX
;20240130101353;20240130_10:14:00,009;1706649240009;2,52561;0,238559;0,147431;0,557328;;;;;RELAX
;20240130101353;20240130_10:14:00,036;1706649240036;2,45254;-0,921343;-0,333307;-1,27341;;;;;RELAX
;20240130101353;20240130_10:14:00,061;1706649240061;3,24014;0,194223;0,628708;-0,0908466;;;;;RELAX
;20240130101353;20240130_10:14:00,077;1706649240077;2,94907;-0,455121;0,628708;-0,578906;;;;;RELAX
;20240130101353;20240130_10:14:00,095;1706649240095;1,95615;-1,10656;0,002848;-0,244321;;;;;RELAX
;20240130101353;20240130_10:14:00,110;1706649240110;0,518806;0,452937;-0,093736;0,167208;;;;;RELAX
;20240130101353;20240130_10:14:00,128;1706649240128;2,14269;-1,66786;0,059031;-0,471329;;;;;RELAX
;20240130101353;20240130_10:14:00,142;1706649240142;-0,197612;-1,08083;-0,358501;-0,15884;;;;;RELAX
;20240130101353;20240130_10:14:00,163;1706649240163;-0,0724097;-0,12783;-0,340729;-0,02231;;;;;RELAX
;20240130101353;20240130_10:14:00,177;1706649240177;-0,971409;-1,82667;0,219818;-0,946639;;;;;RELAX
;20240130101353;20240130_10:14:00,194;1706649240194;-0,15553;-2,48628;-2,61947;-2,17396;;;;;RELAX
;20240130101353;20240130_10:14:00,213;1706649240213;-0,802334;-1,91451;-2,11238;-2,47306;;;;;RELAX
;20240130101353;20240130_10:14:00,253;1706649240253;-1,98056;-1,16622;-2,29815;-2,37377;;;;;RELAX
;20240130101353;20240130_10:14:00,277;1706649240277;-3,85872;-2,86646;-2,04721;-1,87132;;;;;RELAX
;20240130101353;20240130_10:14:00,292;1706649240292;-2,96618;-3,12968;-0,153377;-1,64539;;;;;RELAX
;20240130101353;20240130_10:14:00,313;1706649240313;-0,34217;-1,87526;-1,12125;-1,11647;;;;;RELAX
;20240130101353;20240130_10:14:00,326;1706649240326;-3,01324;-1,08559;-1,79826;-1,04811;;;;;RELAX
;20240130101353;20240130_10:14:00,343;1706649240343;-2,23118;-2,07609;-0,039907;-0,0736865;;;;;RELAX
;20240130101353;20240130_10:14:00,363;1706649240363;-2,08191;-0,324592;0,0648085;-0,994699;;;;;RELAX
;20240130101353;20240130_10:14:00,376;1706649240376;-2,34643;-0,0062245;-0,636052;0,225139;;;;;RELAX
;20240130101353;20240130_10:14:00,394;1706649240394;-1,88663;-0,689889;1,36812;-0,868548;;;;;RELAX
;20240130101353;20240130_10:14:00,411;1706649240411;-1,52962;-0,234665;0,001668;0,130353;;;;;RELAX
;20240130101353;20240130_10:14:00,427;1706649240427;-2,61292;-1,81116;-0,319007;-0,0460858;;;;;RELAX
;20240130101353;20240130_10:14:00,443;1706649240443;-2,42017;0,341252;0,228972;-1,55051;;;;;RELAX
;20240130101353;20240130_10:14:00,464;1706649240464;-0,617778;-0,794247;0,0574854;-0,419251;;;;;RELAX
;20240130101353;20240130_10:14:00,477;1706649240477;-1,84769;-0,517154;1,86615;1,05957;;;;;RELAX
;20240130101353;20240130_10:14:00,493;1706649240493;-1,44014;0,621616;0,689428;-0,961624;;;;;RELAX
;20240130101353;20240130_10:14:00,512;1706649240512;0,500635;-0,108172;0,120872;-1,51276;;;;;RELAX
;20240130101353;20240130_10:14:00,526;1706649240526;-0,500217;-0,502187;1,55573;-1,61446;;;;;RELAX
;20240130101353;20240130_10:14:00,544;1706649240544;0,12435;0,055794;-0,496109;0,652212;;;;;RELAX
;20240130101353;20240130_10:14:00,559;1706649240559;0,0644304;-0,442131;-1,14175;1,26875;;;;;RELAX
;20240130101353;20240130_10:14:00,577;1706649240577;0,695304;0,17278;0,529021;-0,930282;;;;;RELAX
;20240130101353;20240130_10:14:00,592;1706649240592;0,139553;0,025186;-1,12477;-0,392393;;;;;RELAX
;20240130101353;20240130_10:14:00,609;1706649240609;0,948747;0,802518;1,58384;0,144693;;;;;RELAX
;20240130101353;20240130_10:14:00,629;1706649240629;1,06001;1,61813;2,27984;1,20758;;;;;RELAX
;20240130101353;20240130_10:14:00,644;1706649240644;0,544459;1,99649;1,04454;1,66021;;;;;RELAX
;20240130101353;20240130_10:14:00,659;1706649240659;0,0550642;1,11774;-1,03724;1,49311;;;;;RELAX
;20240130101353;20240130_10:14:00,677;1706649240677;0,316762;0,00407999;1,89617;0,475654;;;;;RELAX
;20240130101353;20240130_10:14:00,693;1706649240693;-0,093378;-0,0464063;0,787086;0,629718;;;;;RELAX
;20240130101353;20240130_10:14:00,711;1706649240711;-1,50226;0,226638;0,006157;0,862623;;;;;RELAX
;20240130101353;20240130_10:14:00,727;1706649240727;-1,47035;-0,623978;-0,395938;0,492494;;;;;RELAX
;20240130101353;20240130_10:14:00,743;1706649240743;-0,820043;-0,359293;-0,167637;-0,287888;;;;;RELAX
;20240130101353;20240130_10:14:00,760;1706649240760;-1,78304;-1,84847;0,888839;-0,912994;;;;;RELAX
;20240130101353;20240130_10:14:00,776;1706649240776;-3,43104;-0,13853;-0,0244441;-0,830602;;;;;RELAX
;20240130101353;20240130_10:14:00,796;1706649240796;-3,44725;-0,950088;-2,11678;-0,830602;;;;;RELAX
;20240130101353;20240130_10:14:00,813;1706649240813;-1,64126;0,363993;-1,14382;0,332227;;;;;RELAX
;20240130101353;20240130_10:14:00,832;1706649240832;-1,49101;0,191913;-0,917353;0,781454;;;;;RELAX
;20240130101353;20240130_10:14:00,843;1706649240843;-0,064688;1,29585;-0,523662;0,12678;;;;;RELAX
;20240130101353;20240130_10:14:00,861;1706649240861;0,031555;1,20758;-0,0093557;0,442641;;;;;RELAX
;20240130101353;20240130_10:14:00,879;1706649240879;-1,42213;0,709828;-0,186003;1,72025;;;;;RELAX
;20240130101353;20240130_10:14:00,891;1706649240891;-0,21836;-0,184772;0,307484;0,439462;;;;;RELAX
;20240130101353;20240130_10:14:00,910;1706649240910;-0,340497;-0,12566;-0,066063;0,793052;;;;;RELAX
;20240130101353;20240130_10:14:00,929;1706649240929;-0,199742;-0,236808;-0,538977;0,313297;;;;;RELAX
;20240130101353;20240130_10:14:00,945;1706649240945;-0,642525;-0,196301;0,492887;0,607372;;;;;RELAX
;20240130101353;20240130_10:14:00,960;1706649240960;1,38757;0,379809;0,886731;-1,79483;;;;;RELAX
;20240130101353;20240130_10:14:00,977;1706649240977;1,90033;1,65907;0,186573;-0,0078419;;;;;RELAX
;20240130101353;20240130_10:14:00,994;1706649240994;3,39688;0,094944;0,945209;0,225821;;;;;RELAX
;20240130101353;20240130_10:14:01,009;1706649241009;3,50727;1,60783;-0,462022;-0,039883;;;;;RELAX
;20240130101353;20240130_10:14:01,027;1706649241027;3,72751;2,37843;0,636768;0,593787;;;;;RELAX
;20240130101353;20240130_10:14:01,043;1706649241043;3,02334;1,57499;0,500656;0,220754;;;;;RELAX
;20240130101353;20240130_10:14:01,061;1706649241061;0,29319;0,163165;-0,0919392;0,0497751;;;;;RELAX
;20240130101353;20240130_10:14:01,079;1706649241079;2,99356;1,57425;1,69576;0,200081;;;;;RELAX
;20240130101353;20240130_10:14:01,094;1706649241094;2,42609;0,668638;0,788543;-0,844025;;;;;RELAX
;20240130101353;20240130_10:14:01,109;1706649241109;4,12024;0,804797;1,04911;0,116889;;;;;RELAX
;20240130101353;20240130_10:14:01,127;1706649241127;1,73379;-0,0472765;0,724462;-0,441369;;;;;RELAX
;20240130101353;20240130_10:14:01,143;1706649241143;0,26446;-0,489307;0,686293;-0,380177;;;;;RELAX
;20240130101353;20240130_10:14:01,161;1706649241161;1,78179;-0,538059;0,581438;-0,568715;;;;;RELAX
;20240130101353;20240130_10:14:01,177;1706649241177;1,33003;-0,205506;0,0765524;-0,569445;;;;;RELAX
;20240130101353;20240130_10:14:01,194;1706649241194;1,55006;-0,418462;0,228491;0,893569;;;;;RELAX
;20240130101353;20240130_10:14:01,209;1706649241209;1,23833;0,048919;0,382278;-1,19815;;;;;RELAX
;20240130101353;20240130_10:14:01,228;1706649241228;1,95813;0,580127;-0,283868;0,0799054;;;;;RELAX
;20240130101353;20240130_10:14:01,244;1706649241244;0,184069;-0,670294;0,890087;0,014209;;;;;RELAX
;20240130101353;20240130_10:14:01,261;1706649241261;1,33337;-0,290059;-0,395676;-0,069348;;;;;RELAX
;20240130101353;20240130_10:14:01,275;1706649241275;1,48495;-0,337927;-0,573581;-0,246512;;;;;RELAX
;20240130101353;20240130_10:14:01,294;1706649241294;-0,10256;-0,913368;0,130248;-0,918566;;;;;RELAX
;20240130101353;20240130_10:14:01,309;1706649241309;0,240439;-0,452184;-0,951989;-0,395605;;;;;RELAX
;20240130101353;20240130_10:14:01,327;1706649241327;-0,016891;0,258358;-0,235031;-0,485196;;;;;RELAX
;20240130101353;20240130_10:14:01,344;1706649241344;-0,009741;-0,462102;0,385697;-1,64026;;;;;RELAX
;20240130101353;20240130_10:14:01,360;1706649241360;-0,747818;-0,076232;0,0595995;-0,541674;;;;;RELAX
;20240130101353;20240130_10:14:01,379;1706649241379;-0,332524;0,364998;-0,0858477;-0,303817;;;;;RELAX
;20240130101353;20240130_10:14:01,394;1706649241394;0,388944;-0,144211;0,433429;-0,244262;;;;;RELAX
;20240130101353;20240130_10:14:01,415;1706649241415;-0,469088;-0,765597;1,30351;0,330138;;;;;RELAX
;20240130101353;20240130_10:14:01,428;1706649241428;-0,501116;1,00787;-1,18349;0,746633;;;;;RELAX
;20240130101353;20240130_10:14:01,443;1706649241443;0,491012;0,441034;0,14655;-0,397617;;;;;RELAX
;20240130101353;20240130_10:14:01,464;1706649241464;-0,033405;0,354535;1,03329;0,12687;;;;;RELAX
;20240130101353;20240130_10:14:01,476;1706649241476;-2,72463;-0,16019;-1,28615;-0,689344;;;;;RELAX
;20240130101353;20240130_10:14:01,494;1706649241494;-3,83927;-0,915678;-1,18835;0,575207;;;;;RELAX
;20240130101353;20240130_10:13:53,884;1706649233884;-3,65657;-0,000525762;-2,27633;-0,000361369;;;;;RELAX
;20240130101353;20240130_10:13:53,910;1706649233910;-4,52042;-0,000478624;-3,01196;-0,000317823;;;;;RELAX
;20240130101353;20240130_10:13:53,927;1706649233927;-2,58358;-0,000429459;-2,33859;-0,000289339;;;;;RELAX
;20240130101353;20240130_10:13:53,944;1706649233944;-3,73641;-0,000373027;-1,88527;-0,00022965;;;;;RELAX
;20240130101353;20240130_10:13:53,959;1706649233959;-2,78311;-0,00034686;-3,10181;-0,000196541;;;;;RELAX
;20240130101353;20240130_10:13:53,975;1706649233975;-1,63671;-0,000292215;-1,09788;-0,000165971;;;;;RELAX
;20240130101353;20240130_10:13:53,994;1706649233994;-3,16427;-0,000280508;-2,11536;-0,000145137;;;;;RELAX
;20240130101353;20240130_10:13:54,011;1706649234011;-0,896641;-0,000259549;-0,967063;-0,000118882;;;;;RELAX
;20240130101353;20240130_10:13:54,034;1706649234034;-0,689416;-0,000212094;0,116803;-9,94505;;;;;RELAX
;20240130101353;20240130_10:13:54,061;1706649234061;-0,650639;-0,000193128;-1,38537;-5,97253;;;;;RELAX
;20240130101353;20240130_10:13:54,094;1706649234094;-0,984873;-0,000155008;-0,038172;-3,42877;;;;;RELAX
;20240130101353;20240130_10:13:54,117;1706649234117;-1,39425;-0,000143106;-0,073786;-2,72798;;;;;RELAX
;20240130101353;20240130_10:13:54,147;1706649234147;-1,99279;-0,000130639;-0,310211;-1,95988;;;;;RELAX
;20240130101353;20240130_10:13:54,164;1706649234164;-0,10819;-0,000127748;-0,675548;-0,641079;;;;;RELAX
;20240130101353;20240130_10:13:54,193;1706649234193;-1,40378;-0,000116027;0,328361;1,29429;;;;;RELAX
;20240130101353;20240130_10:13:54,229;1706649234229;-0,681169;-0,000101725;1,90498;1,47728;;;;;RELAX
;20240130101353;20240130_10:13:54,244;1706649234244;0,012997;-0,000103088;-0,019109;1,21856;;;;;RELAX
;20240130101353;20240130_10:13:54,261;1706649234261;-0,754978;-7,98676;1,10499;1,62925;;;;;RELAX
;20240130101353;20240130_10:13:54,276;1706649234276;0,311339;-9,03017;1,07532;0,32975;;;;;RELAX
;20240130101353;20240130_10:13:54,292;1706649234292;-1,13019;-8,33086;-0,832715;1,72859;;;;;RELAX
;20240130101353;20240130_10:13:54,314;1706649234314;-0,412129;-8,15187;0,18466;2,60185;;;;;RELAX
;20240130101353;20240130_10:13:54,345;1706649234345;-0,350949;-7,55294;-0,429618;2,08939;;;;;RELAX
;20240130101353;20240130_10:13:54,360;1706649234360;-0,814821;-8,70384;0,284416;2,79093;;;;;RELAX
;20240130101353;20240130_10:13:54,377;1706649234377;0,435405;-7,36225;-1,01054;2,00363;;;;;RELAX
;20240130101353;20240130_10:13:54,396;1706649234396;-1,80536;-8,67098;-0,307293;1,38667;;;;;RELAX
;20240130101353;20240130_10:13:54,411;1706649234411;-1,18128;-9,14739;-1,41895;0,988216;;;;;RELAX
;20240130101353;20240130_10:13:54,426;1706649234426;-0,426039;-7,89897;0,344643;1,59152;;;;;RELAX
;20240130101353;20240130_10:13:54,443;1706649234443;-0,363037;-8,09013;-0,318237;0,276337;;;;;RELAX
;20240130101353;20240130_10:13:54,459;1706649234459;-0,290564;-8,38564;1,04067;1,83918;;;;;RELAX
;20240130101353;20240130_10:13:54,480;1706649234480;0,418422;-7,38653;0,14118;0,534641;;;;;RELAX
;20240130101353;20240130_10:13:54,496;1706649234496;-0,003288;-7,47094;0,732026;1,71095;;;;;RELAX
;20240130101353;20240130_10:13:54,513;1706649234513;-0,451734;-8,76593;-0,317873;0,718041;;;;;RELAX
;20240130101353;20240130_10:13:54,526;1706649234526;0,103139;-7,53816;1,52646;0,678721;;;;;RELAX
;20240130101353;20240130_10:13:54,544;1706649234544;-0,463137;-8,45399;0,883096;0,840552;;;;;RELAX
;20240130101353;20240130_10:13:54,561;1706649234561;-0,144232;-8,04813;1,48458;0,073187;;;;;RELAX
;20240130101353;20240130_10:13:54,576;1706649234576;0,933208;-7,79988;0,0298114;0,0039591;;;;;RELAX
;20240130101353;20240130_10:13:54,594;1706649234594;-1,43358;-8,28855;0,360714;0,938496;;;;;RELAX
;20240130101353;20240130_10:13:54,610;1706649234610;-0,765139;-8,08943;-0,0093246;0,744078;;;;;RELAX
;20240130101353;20240130_10:13:54,628;1706649234628;-0,382101;-7,51878;0,0572914;0,108696;;;;;RELAX
;20240130101353;20240130_10:13:54,646;1706649234646;-0,465093;-7,54039;1,45412;0,354437;;;;;RELAX
;20240130101353;20240130_10:13:54,670;1706649234670;-1,49604;-8,39221;-0,874003;-0,034776;;;;;RELAX
;20240130101353;20240130_10:13:54,693;1706649234693;-1,11585;-8,52428;-1,35355;-0,080948;;;;;RELAX
;20240130101353;20240130_10:13:54,710;1706649234710;-2,32052;-8,23503;-0,294973;-0,345595;;;;;RELAX
;20240130101353;20240130_10:13:54,729;1706649234729;-0,32763;-9,11074;1,51027;-1,83281;;;;;RELAX
;20240130101353;20240130_10:13:54,743;1706649234743;0,693928;-7,79218;1,05236;-0,452392;;;;;RELAX
;20240130101353;20240130_10:13:54,759;1706649234759;0,140229;-7,15195;0,633424;-0,799481;;;;;RELAX
;20240130101353;20240130_10:13:54,776;1706649234776;0,493359;-7,11282;0,992735;-0,749861;;;;;RELAX
;20240130101353;20240130_10:13:54,793;1706649234793;0,676476;-7,28414;0,249394;-0,253305;;;;;RELAX
;20240130101353;20240130_10:13:54,809;1706649234809;1,61481;-7,64617;0,113216;-1,66598;;;;;RELAX
;20240130101353;20240130_10:13:54,829;1706649234829;2,56412;-6,40778;0,060721;0,405329;;;;;RELAX
;20240130101353;20240130_10:13:54,848;1706649234848;4,03934;-5,02268;2,17066;-0,346071;;;;;RELAX
;20240130101353;20240130_10:13:54,860;1706649234860;4,53518;-5,30571;1,89631;-0,0197659;;;;;RELAX
;20240130101353;20240130_10:13:54,876;1706649234876;1,50992;-4,67672;0,437239;-0,00890274;;;;;RELAX
;20240130101353;20240130_10:13:54,892;1706649234892;0,13472;-5,61377;1,03079;0,168837;;;;;RELAX
;20240130101353;20240130_10:13:54,912;1706649234912;2,93596;-5,54088;0,822218;-0,025712;;;;;RELAX
;20240130101353;20240130_10:13:54,927;1706649234927;2,09831;-0,53323;0,532529;-0,0101311;;;;;RELAX
;20240130101353;20240130_10:13:54,944;1706649234944;0,12477;-5,55807;0,815101;-0,299588;;;;;RELAX
;20240130101353;20240130_10:13:54,960;1706649234960;2,22427;-4,95228;1,25799;-1,70145;;;;;RELAX
;20240130101353;20240130_10:13:54,976;1706649234976;2,22427;-4,75617;0,0166154;-1,70145;;;;;RELAX
;20240130101353;20240130_10:13:54,995;1706649234995;1,30595;-4,40485;-0,149326;1,12908;;;;;RELAX
;20240130101353;20240130_10:13:55,010;1706649235010;1,38192;-4,15826;0,699883;0,711228;;;;;RELAX
;20240130101353;20240130_10:13:55,026;1706649235026;0,874373;-5,17262;0,604482;0,114774;;;;;RELAX
;20240130101353;20240130_10:13:55,043;1706649235043;0,892219;-5,93791;0,655238;-1,97322;;;;;RELAX
;20240130101353;20240130_10:13:55,061;1706649235061;0,545101;-4,90696;-0,327248;-0,578251;;;;;RELAX
;20240130101353;20240130_10:13:55,075;1706649235075;0,399964;-4,76265;-1,38391;-1,04005;;;;;RELAX
;20240130101353;20240130_10:13:55,092;1706649235092;1,34534;-0,42434;0,826319;0,0207351;;;;;RELAX
;20240130101353;20240130_10:13:55,120;1706649235120;-1,46227;-5,80096;0,0357017;-0,972182;;;;;RELAX
;20240130101353;20240130_10:13:55,142;1706649235142;0,533664;-5,75862;1,19712;-1,30869;;;;;RELAX
;20240130101353;20240130_10:13:55,159;1706649235159;0,602628;-4,91548;0,028289;-0,137967;;;;;RELAX
;20240130101353;20240130_10:13:55,176;1706649235176;-0,990662;-4,35856;-2,06582;-1,83317;;;;;RELAX
;20240130101353;20240130_10:13:55,198;1706649235198;-3,06468;-0,69981;-2,04556;-0,267275;;;;;RELAX
;20240130101353;20240130_10:13:55,211;1706649235211;-3,85531;-9,80951;-1,50776;-2,92137;;;;;RELAX
;20240130101353;20240130_10:13:55,236;1706649235236;-1,58366;-7,99819;-2,19196;-3,26732;;;;;RELAX
;20240130101353;20240130_10:13:55,246;1706649235246;-1,40743;-6,93641;-0,274915;-3,32371;;;;;RELAX
;20240130101353;20240130_10:13:55,262;1706649235262;-3,03952;-6,20834;-2,12114;-1,40893;;;;;RELAX
;20240130101353;20240130_10:13:55,275;1706649235275;-1,48588;-5,72908;-0,682942;-1,24771;;;;;RELAX
;20240130101353;20240130_10:13:55,294;1706649235294;-1,56211;-0,46198;-0,165882;-1,89346;;;;;RELAX
;20240130101353;20240130_10:13:55,310;1706649235310;-1,11126;-4,21001;0,177214;0,503728;;;;;RELAX
;20240130101353;20240130_10:13:55,328;1706649235328;0,0444393;-2,65175;-0,541298;-0,791313;;;;;RELAX
;20240130101353;20240130_10:13:55,344;1706649235344;0,849027;-3,72483;0,922285;1,10412;;;;;RELAX
;20240130101353;20240130_10:13:55,359;1706649235359;-2,88724;-2,93158;0,085704;0,0770812;;;;;RELAX
;20240130101353;20240130_10:13:55,379;1706649235379;-2,23336;-4,11137;0,185289;-0,0101643;;;;;RELAX
;20240130101353;20240130_10:13:55,392;1706649235392;0,826909;-2,48598;0,187797;1,37213;;;;;RELAX
;20240130101353;20240130_10:13:55,408;1706649235408;-0,119797;-2,34213;1,95144;0,994397;;;;;RELAX
;20240130101353;20240130_10:13:55,430;1706649235430;1,59304;0,434253;0,258938;3,60418;;;;;RELAX
;20240130101353;20240130_10:13:55,443;1706649235443;1,59304;0,434253;0,258938;3,60418;;;;;RELAX
;20240130101353;20240130_10:13:55,458;1706649235458;-0,207118;-0,999756;1,67361;1,79076;;;;;RELAX
;20240130101353;20240130_10:13:55,476;1706649235476;0,895782;-0,0146526;1,47524;2,41027;;;;;RELAX
;20240130101353;20240130_10:13:55,493;1706649235493;0,22201;0,567427;1,94535;1,09478;;;;;RELAX
;20240130101353;20240130_10:13:55,512;1706649235512;-0,076676;-1,57341;1,07152;0,20696;;;;;RELAX
;20240130101353;20240130_10:13:55,525;1706649235525;0,494358;-1,52424;0,843059;1,22497;;;;;RELAX
;20240130101353;20240130_10:13:55,542;1706649235542;0,174316;-1,92523;1,25837;-0,399237;;;;;RELAX
;20240130101353;20240130_10:13:55,561;1706649235561;1,33023;-0,954297;2,79917;-0,276389;;;;;RELAX
;20240130101353;20240130_10:13:55,577;1706649235577;-0,14665;-2,74497;0,287238;0,755546;;;;;RELAX
;20240130101353;20240130_10:13:55,597;1706649235597;-2,60148;-4,57977;0,451217;-1,04936;;;;;RELAX
;20240130101353;20240130_10:13:55,609;1706649235609;-2,60148;-4,57977;0,451217;-1,04936;;;;;RELAX
;20240130101353;20240130_10:13:55,627;1706649235627;-1,08109;-4,58221;0,814567;-1,07007;;;;;RELAX
;20240130101353;20240130_10:13:55,642;1706649235642;-1,43091;-3,95108;-1,21659;-1,04567;;;;;RELAX
;20240130101353;20240130_10:13:55,658;1706649235658;-2,54584;-3,00428;0,538973;-0,943592;;;;;RELAX
;20240130101353;20240130_10:13:55,675;1706649235675;-2,54212;-3,70824;1,17052;-0,667844;;;;;RELAX
;20240130101353;20240130_10:13:55,693;1706649235693;0,482043;-3,44932;-0,882912;-1,71476;;;;;RELAX
;20240130101353;20240130_10:13:55,710;1706649235710;-1,64486;-2,83598;-0,518894;-0,702878;;;;;RELAX
;20240130101353;20240130_10:13:55,726;1706649235726;-1,26223;-2,04495;1,18485;0,497605;;;;;RELAX
;20240130101353;20240130_10:13:55,742;1706649235742;-1,48745;-4,48264;-2,61635;-1,24956;;;;;RELAX
;20240130101353;20240130_10:13:55,759;1706649235759;-1,89352;-4,11427;-1,55218;-0,23296;;;;;RELAX
;20240130101353;20240130_10:13:55,776;1706649235776;1,97831;-1,61466;-0,784645;-1,54386;;;;;RELAX
;20240130101353;20240130_10:13:55,792;1706649235792;1,52699;-2,00937;0,0923238;-1,91405;;;;;RELAX
;20240130101353;20240130_10:13:55,809;1706649235809;0,27754;-2,52843;0,0365521;-0,572578;;;;;RELAX
;20240130101353;20240130_10:13:55,830;1706649235830;2,73078;-2,04021;-1,23726;-1,36487;;;;;RELAX
;20240130101353;20240130_10:13:55,842;1706649235842;2,46572;-2,04021;-0,324358;-1,36487;;;;;RELAX
;20240130101353;20240130_10:13:55,860;1706649235860;3,39997;-1,76843;0,261217;-0,457417;;;;;RELAX
;20240130101353;20240130_10:13:55,879;1706649235879;2,39192;-1,37039;-0,047624;-1,32373;;;;;RELAX
;20240130101353;20240130_10:13:55,895;1706649235895;1,66229;-1,98066;-1,06216;-1,06033;;;;;BLINK
;20240130101353;20240130_10:13:55,918;1706649235918;4,19419;-1,23116;0,00906803;-0,16337;;;;;BLINK
;20240130101353;20240130_10:13:55,926;1706649235926;2,57175;-0,13606;-0,637037;-0,278189;;;;;BLINK
;20240130101353;20240130_10:13:55,942;1706649235942;2,47238;-1,62016;0,0941684;-1,61558;;;;;BLINK
;20240130101353;20240130_10:13:55,960;1706649235960;3,75612;-0,0004128;-1,41444;-0,0495066;;;;;BLINK
;20240130101353;20240130_10:13:55,975;1706649235975;4,85715;-1,89679;-1,24863;-0,842104;;;;;BLINK
;20240130101353;20240130_10:13:55,995;1706649235995;1,75522;-0,442951;0,280852;-2,11303;;;;;BLINK
;20240130101353;20240130_10:13:56,013;1706649236013;-0,655139;-5,91349;-0,38137;-3,46832;;;;;BLINK
;20240130101353;20240130_10:13:56,026;1706649236026;-1,82229;-6,05018;-5,46152;-4,03282;;;;;BLINK
;20240130101353;20240130_10:13:56,042;1706649236042;-4,24974;-6,75641;-6,70977;-4,97692;;;;;BLINK
;20240130101353;20240130_10:13:56,059;1706649236059;-6,56358;-0,000105412;-0,00011672;-7,12661;;;;;BLINK
;20240130101353;20240130_10:13:56,076;1706649236076;-0,000120358;-0,000168282;-0,000123131;-0,000110596;;;;;BLINK
;20240130101353;20240130_10:13:56,093;1706649236093;-6,86142;-0,000120024;-8,80835;-8,52785;;;;;BLINK
;20240130101353;20240130_10:13:56,112;1706649236112;-4,35037;-9,05419;-7,49242;-4,91173;;;;;BLINK
;20240130101353;20240130_10:13:56,127;1706649236127;-3,43963;-7,57209;-5,25898;-3,31266;;;;;BLINK
;20240130101353;20240130_10:13:56,142;1706649236142;-0,586114;-0,44378;-5,94277;-2,07341;;;;;BLINK
;20240130101353;20240130_10:13:56,158;1706649236158;3,33354;-2,97617;-1,92919;-0,471364;;;;;BLINK
;20240130101353;20240130_10:13:56,175;1706649236175;0,970958;-5,83054;1,69794;1,09777;;;;;BLINK
;20240130101353;20240130_10:13:56,192;1706649236192;0,963494;-4,92536;-0,449284;0,953916;;;;;BLINK
;20240130101353;20240130_10:13:56,208;1706649236208;0,094914;-3,02326;-2,76917;1,27731;;;;;BLINK
;20240130101353;20240130_10:13:56,227;1706649236227;1,00059;-2,95071;-3,08668;-0,242597;;;;;BLINK
;20240130101353;20240130_10:13:56,243;1706649236243;2,46867;-3,23268;-0,482953;2,47984;;;;;BLINK
;20240130101353;20240130_10:13:56,259;1706649236259;2,08064;-1,70145;-0,362305;2,21764;;;;;BLINK
;20240130101353;20240130_10:13:56,275;1706649236275;1,13183;-1,89059;0,406545;3,03211;;;;;BLINK
;20240130101353;20240130_10:13:56,292;1706649236292;1,02146;-0,34367;2,73996;3,10199;;;;;BLINK
;20240130101353;20240130_10:13:56,310;1706649236310;1,41794;-3,30139;3,81274;3,47083;;;;;BLINK
;20240130101353;20240130_10:13:56,331;1706649236331;-0,184943;-2,65688;4,14025;6,07948;;;;;BLINK
;20240130101353;20240130_10:13:56,343;1706649236343;-0,068921;-3,62538;4,57417;0,56009;;;;;BLINK
;20240130101353;20240130_10:13:56,370;1706649236370;1,89234;-4,10801;4,68384;3,90077;;;;;BLINK
;20240130101353;20240130_10:13:56,393;1706649236393;-0,151754;-1,80696;6,05382;0,58715;;;;;BLINK
;20240130101353;20240130_10:13:56,410;1706649236410;-0,0810664;-3,73036;0,55828;5,29419;;;;;BLINK
;20240130101353;20240130_10:13:56,426;1706649236426;1,12321;-4,46212;5,11423;5,17646;;;;;BLINK
;20240130101353;20240130_10:13:56,443;1706649236443;1,97984;-3,77822;0,66475;3,89754;;;;;BLINK
;20240130101353;20240130_10:13:56,459;1706649236459;1,81174;-3,65512;6,87726;0,42509;;;;;BLINK
;20240130101353;20240130_10:13:56,478;1706649236478;3,75618;-0,784571;8,25987;0,39121;;;;;BLINK
;20240130101353;20240130_10:13:56,492;1706649236492;1,30512;-0,731906;5,90354;2,95769;;;;;BLINK
;20240130101353;20240130_10:13:56,510;1706649236510;1,86171;0,0188783;5,75988;4,67123;;;;;BLINK
;20240130101353;20240130_10:13:56,526;1706649236526;0,744723;1,12326;4,42811;3,32338;;;;;BLINK
;20240130101353;20240130_10:13:56,546;1706649236546;4,61844;0,44022;8,10223;3,97359;;;;;BLINK
;20240130101353;20240130_10:13:56,565;1706649236565;1,64923;0,34707;7,05583;4,47001;;;;;BLINK
;20240130101353;20240130_10:13:56,577;1706649236577;2,43794;4,69487;6,83581;5,50715;;;;;BLINK
;20240130101353;20240130_10:13:56,592;1706649236592;0,21586;4,09077;7,58375;3,62134;;;;;BLINK
;20240130101353;20240130_10:13:56,611;1706649236611;0,341086;4,39631;6,02388;3,39422;;;;;BLINK
;20240130101353;20240130_10:13:56,627;1706649236627;-0,0679377;4,69547;0,67996;2,63688;;;;;BLINK
;20240130101353;20240130_10:13:56,646;1706649236646;-0,307146;3,75306;0,67996;1,92326;;;;;BLINK
;20240130101353;20240130_10:13:56,660;1706649236660;-0,441492;4,47157;0,36059;2,41801;;;;;BLINK
;20240130101353;20240130_10:13:56,677;1706649236677;-0,725982;3,91559;2,85029;2,11471;;;;;BLINK
;20240130101353;20240130_10:13:56,692;1706649236692;-1,21117;4,22108;4,10519;0,278579;;;;;BLINK
;20240130101353;20240130_10:13:56,710;1706649236710;-0,783484;3,20772;0,36971;1,79272;;;;;BLINK
;20240130101353;20240130_10:13:56,728;1706649236728;1,67391;4,03485;2,20981;0,630015;;;;;BLINK
;20240130101353;20240130_10:13:56,744;1706649236744;0,866877;3,52229;3,93496;0,735735;;;;;BLINK
;20240130101353;20240130_10:13:56,759;1706649236759;1,04779;3,69162;3,80843;0,744044;;;;;BLINK
;20240130101353;20240130_10:13:56,777;1706649236777;3,94646;3,77583;2,20603;0,150103;;;;;BLINK
;20240130101353;20240130_10:13:56,791;1706649236791;0,29971;3,12823;2,69092;0,143531;;;;;BLINK
;20240130101353;20240130_10:13:56,809;1706649236809;1,85467;1,27737;3,41244;-0,317057;;;;;BLINK
;20240130101353;20240130_10:13:56,827;1706649236827;4,00571;3,44717;1,38022;0,430023;;;;;BLINK
;20240130101353;20240130_10:13:56,846;1706649236846;1,87349;2,11247;0,958248;0,0198996;;;;;BLINK
;20240130101353;20240130_10:13:56,861;1706649236861;0,0353542;0,0772424;-1,25443;-0,22884;;;;;BLINK
;20240130101353;20240130_10:13:56,887;1706649236887;2,10154;1,65238;0,942084;1,33752;;;;;BLINK
;20240130101353;20240130_10:13:56,893;1706649236893;2,10154;1,65238;0,942084;1,33752;;;;;BLINK
;20240130101353;20240130_10:13:56,910;1706649236910;2,33053;1,79272;1,77551;-0,742449;;;;;BLINK
;20240130101353;20240130_10:13:56,927;1706649236927;0,690663;0,887461;-0,477576;-1,55212;;;;;BLINK
;20240130101353;20240130_10:13:56,942;1706649236942;0,487183;0,201856;-1,47441;-0,943459;;;;;BLINK
;20240130101353;20240130_10:13:56,960;1706649236960;1,34609;1,42634;-0,16086;-1,58024;;;;;BLINK
;20240130101353;20240130_10:13:56,977;1706649236977;-0,0376612;0,00921863;-1,29224;-1,97866;;;;;BLINK
;20240130101353;20240130_10:13:56,992;1706649236992;1,19516;1,43566;-1,51819;-1,43836;;;;;BLINK
;20240130101353;20240130_10:13:57,008;1706649237008;-0,183684;0,436806;-0,359382;-1,83224;;;;;BLINK
;20240130101353;20240130_10:13:57,029;1706649237029;-0,979812;-0,032604;-0,747791;-1,64038;;;;;BLINK
;20240130101353;20240130_10:13:57,043;1706649237043;-0,165548;0,019201;-1,24596;-0,052489;;;;;BLINK
;20240130101353;20240130_10:13:57,061;1706649237061;-0,109917;-1,01439;-1,06478;-2,94106;;;;;BLINK
;20240130101353;20240130_10:13:57,078;1706649237078;-0,267944;0,843306;-0,045887;-1,45745;;;;;BLINK
;20240130101353;20240130_10:13:57,094;1706649237094;-0,422677;0,328416;-1,04218;-1,26923;;;;;BLINK
;20240130101353;20240130_10:13:57,111;1706649237111;-2,12065;-1,42652;-2,03209;-2,60256;;;;;BLINK
;20240130101353;20240130_10:13:57,127;1706649237127;-3,80615;-0,870999;-2,09785;-2,08996;;;;;BLINK
;20240130101353;20240130_10:13:57,143;1706649237143;-0,125065;-0,327269;-1,52747;-0,23155;;;;;BLINK
;20240130101353;20240130_10:13:57,159;1706649237159;-2,51041;-1,73336;-0,556455;-2,61099;;;;;BLINK
;20240130101353;20240130_10:13:57,177;1706649237177;-2,62614;-1,39956;-1,46632;-1,50726;;;;;BLINK
;20240130101353;20240130_10:13:57,192;1706649237192;-2,35001;-0,644048;-1,33673;-3,22923;;;;;BLINK
;20240130101353;20240130_10:13:57,210;1706649237210;-1,21875;-1,28545;-1,36005;-1,17735;;;;;BLINK
;20240130101353;20240130_10:13:57,228;1706649237228;-2,09532;-0,103355;-0,180768;0,0559835;;;;;BLINK
;20240130101353;20240130_10:13:57,243;1706649237243;-1,83534;0,0663358;-0,21896;-1,64711;;;;;BLINK
;20240130101353;20240130_10:13:57,260;1706649237260;-4,30147;-4,30155;-2,11285;-5,85542;;;;;BLINK
;20240130101353;20240130_10:13:57,276;1706649237276;-4,39557;-0,39091;-3,32281;-0,48606;;;;;BLINK
;20240130101353;20240130_10:13:57,294;1706649237294;-0,04747;-3,72737;-1,47149;-0,33674;;;;;BLINK
;20240130101353;20240130_10:13:57,310;1706649237310;-2,68103;-0,31523;-1,90037;-0,03667;;;;;BLINK
;20240130101353;20240130_10:13:57,330;1706649237330;-2,74086;-1,19434;-1,10613;-1,73151;;;;;BLINK
;20240130101353;20240130_10:13:57,345;1706649237345;-0,28266;-1,30745;-0,884486;-1,47935;;;;;BLINK
;20240130101353;20240130_10:13:57,360;1706649237360;-2,30305;-1,52861;-1,04167;-3,04086;;;;;BLINK
;20240130101353;20240130_10:13:57,377;1706649237377;1,18586;0,117035;0,728321;-1,19188;;;;;BLINK
;20240130101353;20240130_10:13:57,394;1706649237394;-2,06837;0,369439;-2,30563;-0,608655;;;;;BLINK
;20240130101353;20240130_10:13:57,408;1706649237408;-2,44822;-0,743976;-1,17261;-1,15809;;;;;BLINK
;20240130101353;20240130_10:13:57,425;1706649237425;-0,533106;-0,550288;-0,17515;-0,430686;;;;;BLINK
;20240130101353;20240130_10:13:57,443;1706649237443;0,074989;0,371646;-1,06271;-0,00025732;;;;;BLINK
;20240130101353;20240130_10:13:57,459;1706649237459;0,755394;1,02219;1,70803;1,29175;;;;;BLINK
;20240130101353;20240130_10:13:57,475;1706649237475;-1,04271;0,652933;-0,266101;0,891648;;;;;BLINK
;20240130101353;20240130_10:13:57,493;1706649237493;-1,37914;-0,13965;-1,74607;-0,168306;;;;;BLINK
;20240130101353;20240130_10:13:57,512;1706649237512;0,754533;-0,13901;0,019348;0,268587;;;;;BLINK
;20240130101353;20240130_10:13:57,525;1706649237525;-1,25862;0,000070767;-0,311774;0,474789;;;;;BLINK
;20240130101353;20240130_10:13:57,542;1706649237542;0,451847;-0,022615;-0,328537;1,40469;;;;;BLINK
;20240130101353;20240130_10:13:57,559;1706649237559;0,11779;0,244733;2,48246;0,838405;;;;;BLINK
;20240130101353;20240130_10:13:57,575;1706649237575;0,26864;1,26391;0,672368;0,20352;;;;;BLINK
;20240130101353;20240130_10:13:57,594;1706649237594;2,53972;2,04635;0,490548;2,87011;;;;;BLINK
;20240130101353;20240130_10:13:57,609;1706649237609;0,227527;1,45304;2,46843;1,84335;;;;;BLINK
;20240130101353;20240130_10:13:57,629;1706649237629;1,62643;-0,291294;0,821483;1,80617;;;;;BLINK
;20240130101353;20240130_10:13:57,644;1706649237644;1,12253;0,356239;0,277254;0,904635;;;;;BLINK
;20240130101353;20240130_10:13:57,660;1706649237660;1,18523;1,56779;0,868105;0,17285;;;;;BLINK
;20240130101353;20240130_10:13:57,677;1706649237677;0,781078;0,749967;0,702242;1,75923;;;;;BLINK
;20240130101353;20240130_10:13:57,693;1706649237693;0,795088;1,01193;0,550309;1,26319;;;;;BLINK
;20240130101353;20240130_10:13:57,711;1706649237711;-0,00221053;0,275788;-0,744598;1,15134;;;;;BLINK
;20240130101353;20240130_10:13:57,725;1706649237725;-3,78985;-0,532338;-2,27191;-2,53786;;;;;BLINK
;20240130101353;20240130_10:13:57,742;1706649237742;-5,96153;-3,56019;-0,55316;-3,29996;;;;;BLINK
;20240130101353;20240130_10:13:57,758;1706649237758;-7,08557;-3,93053;-4,03774;-5,90427;;;;;BLINK
;20240130101353;20240130_10:13:57,775;1706649237775;-0,77372;-2,82478;-4,33904;-2,87874;;;;;BLINK
;20240130101353;20240130_10:13:57,792;1706649237792;-5,72707;-0,13151;-2,23121;-2,65377;;;;;BLINK
;20240130101353;20240130_10:13:57,809;1706649237809;-2,73881;3,21684;-1,44723;1,40195;;;;;BLINK
;20240130101353;20240130_10:13:57,825;1706649237825;-0,599184;5,15457;0,080373;3,87789;;;;;BLINK
;20240130101353;20240130_10:13:57,843;1706649237843;5,90922;8,22103;5,78487;3,17389;;;;;BLINK
;20240130101353;20240130_10:13:57,858;1706649237858;0,79459;0,000110116;7,22583;7,53139;;;;;BLINK
;20240130101353;20240130_10:13:57,875;1706649237875;0,00012396;0,000151037;8,87996;8,61044;;;;;BLINK
;20240130101353;20240130_10:13:57,892;1706649237892;0,000115358;0,000141443;0,000107115;9,74021;;;;;BLINK
;20240130101353;20240130_10:13:57,910;1706649237910;0,000130007;0,00014697;8,16011;7,98072;;;;;BLINK_TWICE
;20240130101353;20240130_10:13:57,926;1706649237926;0,00013756;0,000142954;9,07783;8,75893;;;;;BLINK_TWICE
;20240130101353;20240130_10:13:57,942;1706649237942;0,000149094;0,000140058;9,18778;7,33765;;;;;BLINK_TWICE
;20240130101353;20240130_10:13:57,960;1706649237960;0,000149941;0,00012545;7,81792;5,10749;;;;;BLINK_TWICE
;20240130101353;20240130_10:13:57,976;1706649237976;0,000141948;0,000105188;6,20171;3,98208;;;;;BLINK_TWICE
;20240130101353;20240130_10:13:58,002;1706649238002;0,000146595;0,000100005;7,22879;3,47983;;;;;BLINK_TWICE
;20240130101353;20240130_10:13:58,009;1706649238009;0,000146595;0,000100005;7,22879;3,47983;;;;;BLINK_TWICE
;20240130101353;20240130_10:13:58,026;1706649238026;0,000113768;3,16876;0,39503;-2,57032;;;;;BLINK_TWICE
;20240130101353;20240130_10:13:58,042;1706649238042;0,000112965;4,01653;1,50753;-2,80862;;;;;BLINK_TWICE
;20240130101353;20240130_10:13:58,058;1706649238058;0,000119371;3,20298;3,71628;-4,66861;;;;;BLINK_TWICE
;20240130101353;20240130_10:13:58,076;1706649238076;0,000119598;2,53619;2,85876;-6,21128;;;;;BLINK_TWICE
;20240130101353;20240130_10:13:58,093;1706649238093;0,000102831;1,26901;1,61002;-7,15325;;;;;BLINK_TWICE
;20240130101353;20240130_10:13:58,111;1706649238111;8,07325;-0,976302;-0,792407;-7,67283;;;;;BLINK_TWICE
;20240130101353;20240130_10:13:58,127;1706649238127;8,42202;-2,33052;-0,089132;-7,22946;;;;;BLINK_TWICE
;20240130101353;20240130_10:13:58,143;1706649238143;0,69808;-1,75276;-3,13038;-0,08211;;;;;BLINK_TWICE
;20240130101353;20240130_10:13:58,158;1706649238158;4,31721;-3,28602;-3,63962;-7,83698;;;;;BLINK_TWICE
;20240130101353;20240130_10:13:58,175;1706649238175;2,89326;-4,33945;-6,38573;-9,04825;;;;;BLINK_TWICE
;20240130101353;20240130_10:13:58,192;1706649238192;0,15325;-4,65065;-4,96559;-7,29884;;;;;BLINK_TWICE
;20240130101353;20240130_10:13:58,209;1706649238209;-0,130128;-5,88046;-5,23626;-7,56509;;;;;BLINK_TWICE
;20240130101353;20240130_10:13:58,224;1706649238224;-1,71244;-5,48867;-5,79036;-7,17488;;;;;BLINK_TWICE
;20240130101353;20240130_10:13:58,242;1706649238242;-1,59521;-5,74041;-6,10952;-8,08198;;;;;BLINK_TWICE
;20240130101353;20240130_10:13:58,260;1706649238260;-3,23786;-6,82514;-6,87595;-5,66371;;;;;BLINK_TWICE
;20240130101353;20240130_10:13:58,275;1706649238275;-4,95147;-6,72777;-5,37577;-7,10787;;;;;BLINK_TWICE
;20240130101353;20240130_10:13:58,292;1706649238292;-4,57188;-6,29358;-6,73429;-6,03684;;;;;BLINK_TWICE
;20240130101353;20240130_10:13:58,314;1706649238314;-7,10156;-5,77449;-3,13848;-4,46284;;;;;BLINK_TWICE
;20240130101353;20240130_10:13:58,325;1706649238325;-7,10156;-5,77449;-3,13848;-4,46284;;;;;BLINK_TWICE
;20240130101353;20240130_10:13:58,342;1706649238342;-6,35516;-6,83023;-0,27104;-4,83573;;;;;BLINK_TWICE
;20240130101353;20240130_10:13:58,359;1706649238359;-7,18427;-5,86329;-0,789435;-2,96953;;;;;BLINK_TWICE
;20240130101353;20240130_10:13:58,376;1706649238376;-6,98945;-0,05981;-0,841319;-2,98575;;;;;BLINK_TWICE
;20240130101353;20240130_10:13:58,392;1706649238392;-6,85286;-6,51647;-0,787428;-3,70517;;;;;BLINK_TWICE
;20240130101353;20240130_10:13:58,408;1706649238408;-6,82169;-6,46629;-0,745336;-3,25391;;;;;BLINK_TWICE
;20240130101353;20240130_10:13:58,425;1706649238425;-6,34493;-4,72527;-0,11368;-0,20723;;;;;BLINK_TWICE
;20240130101353;20240130_10:13:58,442;1706649238442;-7,23816;-6,37695;-1,35536;-1,28717;;;;;BLINK_TWICE
;20240130101353;20240130_10:13:58,458;1706649238458;-7,46996;-5,81347;-1,90946;-1,54579;;;;;BLINK_TWICE
;20240130101353;20240130_10:13:58,476;1706649238476;-6,25053;-4,12916;-0,996335;-0,10583;;;;;BLINK_TWICE
;20240130101353;20240130_10:13:58,492;1706649238492;-5,53443;-4,55642;-1,49488;-0,209759;;;;;BLINK_TWICE
;20240130101353;20240130_10:13:58,512;1706649238512;-5,97394;-3,48327;2,36414;1,53631;;;;;BLINK_TWICE
;20240130101353;20240130_10:13:58,526;1706649238526;-5,39185;-3,99467;0,245936;1,30614;;;;;BLINK_TWICE
;20240130101353;20240130_10:13:58,546;1706649238546;-5,38346;-3,82945;1,76264;2,02649;;;;;BLINK_TWICE
;20240130101353;20240130_10:13:58,561;1706649238561;-6,16247;-0,45619;-0,254663;0,167132;;;;;BLINK_TWICE
;20240130101353;20240130_10:13:58,575;1706649238575;-5,38626;-4,19533;0,541945;0,558915;;;;;BLINK_TWICE
;20240130101353;20240130_10:13:58,592;1706649238592;-3,94086;-3,28479;1,40228;2,86482;;;;;BLINK_TWICE
;20240130101353;20240130_10:13:58,609;1706649238609;-4,89551;-3,30291;1,79802;1,75997;;;;;BLINK_TWICE
;20240130101353;20240130_10:13:58,626;1706649238626;-3,14614;-3,15034;0,945115;2,35809;;;;;BLINK_TWICE
;20240130101353;20240130_10:13:58,643;1706649238643;-6,72339;-4,72314;-1,55879;1,63061;;;;;BLINK_TWICE
;20240130101353;20240130_10:13:58,661;1706649238661;-7,19228;-4,55246;-1,81857;1,90756;;;;;BLINK_TWICE
;20240130101353;20240130_10:13:58,676;1706649238676;-4,57599;-0,16577;-0,0808307;1,61638;;;;;BLINK_TWICE
;20240130101353;20240130_10:13:58,695;1706649238695;-3,96317;-3,35033;0,484466;1,80299;;;;;BLINK_TWICE
;20240130101353;20240130_10:13:58,709;1706649238709;-4,07896;-3,27172;-0,445278;2,24776;;;;;BLINK_TWICE
;20240130101353;20240130_10:13:58,727;1706649238727;-4,06659;-2,41696;0,351126;1,68794;;;;;BLINK_TWICE
;20240130101353;20240130_10:13:58,743;1706649238743;-4,01462;-0,46087;-0,12636;1,30064;;;;;BLINK_TWICE
;20240130101353;20240130_10:13:58,761;1706649238761;-0,21037;-0,22623;-0,257609;3,19346;;;;;BLINK_TWICE
;20240130101353;20240130_10:13:58,776;1706649238776;-3,75694;-2,40135;-0,284042;2,23939;;;;;BLINK_TWICE
;20240130101353;20240130_10:13:58,793;1706649238793;-1,33414;-1,82998;1,47772;0,10443;;;;;BLINK_TWICE
;20240130101353;20240130_10:13:58,809;1706649238809;-0,334425;-0,088933;-1,22849;4,21246;;;;;BLINK_TWICE
;20240130101353;20240130_10:13:58,828;1706649238828;-0,0435285;-0,821768;-0,129044;1,74607;;;;;BLINK_TWICE
;20240130101353;20240130_10:13:58,842;1706649238842;-0,669098;-0,038987;0,393348;0,877814;;;;;BLINK_TWICE
;20240130101353;20240130_10:13:58,860;1706649238860;3,71195;1,03254;0,080911;4,09465;;;;;BLINK_TWICE
;20240130101353;20240130_10:13:58,877;1706649238877;2,83533;0,956032;2,48624;3,07952;;;;;BLINK_TWICE
;20240130101353;20240130_10:13:58,892;1706649238892;2,24286;0,0228929;-1,58985;0,23189;;;;;BLINK_TWICE
;20240130101353;20240130_10:13:58,910;1706649238910;-0,347398;-2,20386;-2,03949;-1,14222;;;;;BLINK_TWICE
;20240130101353;20240130_10:13:58,927;1706649238927;2,01517;-1,31053;-0,738424;0,041456;;;;;BLINK_TWICE
;20240130101353;20240130_10:13:58,943;1706649238943;0,811035;-0,870486;-0,721757;0,331706;;;;;BLINK_TWICE
;20240130101353;20240130_10:13:58,960;1706649238960;0,125749;-0,394883;-0,096521;0,532126;;;;;BLINK_TWICE
;20240130101353;20240130_10:13:58,976;1706649238976;0,155264;-2,34959;-1,38253;0,359029;;;;;BLINK_TWICE
;20240130101353;20240130_10:13:58,994;1706649238994;0,725823;0,0020347;0,957439;0,519169;;;;;BLINK_TWICE
;20240130101353;20240130_10:13:59,012;1706649239012;1,18234;-0,175842;-0,313509;1,02089;;;;;BLINK_TWICE
;20240130101353;20240130_10:13:59,030;1706649239030;2,59521;0,535154;-0,470511;0,402705;;;;;BLINK_TWICE
;20240130101353;20240130_10:13:59,044;1706649239044;2,92574;0,906557;2,12206;1,83423;;;;;BLINK_TWICE
;20240130101353;20240130_10:13:59,062;1706649239062;0,876686;2,24128;-0,689347;3,84831;;;;;BLINK_TWICE
;20240130101353;20240130_10:13:59,076;1706649239076;1,76942;0,19984;-0,689347;3,84831;;;;;BLINK_TWICE
;20240130101353;20240130_10:13:59,106;1706649239106;-0,138303;-0,191968;0,546733;1,67588;;;;;BLINK_TWICE
;20240130101353;20240130_10:13:59,129;1706649239129;0,555535;-0,0114549;0,729979;2,19991;;;;;BLINK_TWICE
;20240130101353;20240130_10:13:59,143;1706649239143;0,503067;0,555557;0,253248;0,813805;;;;;BLINK_TWICE
;20240130101353;20240130_10:13:59,162;1706649239162;-1,19569;0,020926;-0,316556;1,84648;;;;;BLINK_TWICE
;20240130101353;20240130_10:13:59,177;1706649239177;0,435104;0,0767278;0,573879;0,991539;;;;;BLINK_TWICE
;20240130101353;20240130_10:13:59,192;1706649239192;0,435104;0,0767278;0,573879;0,991539;;;;;BLINK_TWICE
;20240130101353;20240130_10:13:59,208;1706649239208;-0,636875;-0,562648;1,55548;0,611659;;;;;BLINK_TWICE
;20240130101353;20240130_10:13:59,226;1706649239226;-0,780558;0,723973;0,448556;1,71294;;;;;BLINK_TWICE
;20240130101353;20240130_10:13:59,244;1706649239244;-0,299558;-1,21192;-0,263499;0,056264;;;;;BLINK_TWICE
;20240130101353;20240130_10:13:59,262;1706649239262;-0,368943;0,796553;2,11436;-0,165584;;;;;BLINK_TWICE
;20240130101353;20240130_10:13:59,279;1706649239279;0,0194122;-0,484793;-0,0198667;1,74598;;;;;BLINK_TWICE
;20240130101353;20240130_10:13:59,293;1706649239293;0,258902;0,422798;2,13121;0,846455;;;;;BLINK_TWICE
;20240130101353;20240130_10:13:59,308;1706649239308;-1,89897;0,276373;-0,041381;0,286235;;;;;BLINK_TWICE
;20240130101353;20240130_10:13:59,326;1706649239326;-0,571713;-0,975719;0,813122;0,266606;;;;;BLINK_TWICE
;20240130101353;20240130_10:13:59,343;1706649239343;0,615301;0,117015;0,618095;0,325142;;;;;BLINK_TWICE
;20240130101353;20240130_10:13:59,359;1706649239359;-1,39321;-0,019281;0,009338;0,042283;;;;;BLINK_TWICE
;20240130101353;20240130_10:13:59,377;1706649239377;0,126868;-0,342793;0,237243;0,098772;;;;;BLINK_TWICE
;20240130101353;20240130_10:13:59,394;1706649239394;-2,61646;0,728004;-0,832813;0,100589;;;;;BLINK_TWICE
;20240130101353;20240130_10:13:59,411;1706649239411;-1,31133;0,631167;-0,388696;1,90649;;;;;BLINK_TWICE
;20240130101353;20240130_10:13:59,425;1706649239425;0,564369;-0,280455;1,89281;0,11432;;;;;BLINK_TWICE
;20240130101353;20240130_10:13:59,444;1706649239444;0,327389;0,966209;1,42016;0,692108;;;;;BLINK_TWICE
;20240130101353;20240130_10:13:59,459;1706649239459;-1,16655;0,062749;-0,722838;2,59177;;;;;BLINK_TWICE
;20240130101353;20240130_10:13:59,477;1706649239477;-0,594607;-0,363256;0,297252;1,42309;;;;;BLINK_TWICE
;20240130101353;20240130_10:13:59,494;1706649239494;-0,594607;0,264076;0,556331;0,460936;;;;;BLINK_TWICE
;20240130101353;20240130_10:13:59,509;1706649239509;-0,885151;-0,622373;-0,906008;0,706448;;;;;BLINK_TWICE
;20240130101353;20240130_10:13:59,526;1706649239526;-1,43463;0,137213;-0,505711;-0,913409;;;;;BLINK_TWICE
;20240130101353;20240130_10:13:59,544;1706649239544;0,475457;0,896384;1,13226;0,413881;;;;;BLINK_TWICE
;20240130101353;20240130_10:13:59,560;1706649239560;-2,01808;-1,00608;-1,03455;-0,155035;;;;;BLINK_TWICE
;20240130101353;20240130_10:13:59,576;1706649239576;-1,18671;-0,0150123;-1,16692;-0,617514;;;;;BLINK_TWICE
;20240130101353;20240130_10:13:59,596;1706649239596;-2,92706;-1,55083;-0,36845;-0,971302;;;;;BLINK_TWICE
;20240130101353;20240130_10:13:59,609;1706649239609;-3,20447;-2,11752;-1,79298;0,529097;;;;;BLINK_TWICE
;20240130101353;20240130_10:13:59,625;1706649239625;-0,352807;0,195026;-0,565848;-0,512974;;;;;BLINK_TWICE
;20240130101353;20240130_10:13:59,647;1706649239647;-0,252546;-0,240144;0,150646;-1,23188;;;;;BLINK_TWICE
;20240130101353;20240130_10:13:59,667;1706649239667;-0,866977;-0,322529;-0,581684;-0,368526;;;;;BLINK_TWICE
;20240130101353;20240130_10:13:59,676;1706649239676;-0,866977;0,658355;-0,581684;0,0392899;;;;;BLINK_TWICE
;20240130101353;20240130_10:13:59,692;1706649239692;-1,82369;-0,0765152;0,324107;0,223906;;;;;BLINK_TWICE
;20240130101353;20240130_10:13:59,709;1706649239709;1,01718;-0,0012711;0,374302;0,490427;;;;;BLINK_TWICE
;20240130101353;20240130_10:13:59,728;1706649239728;0,404612;0,333701;0,557955;0,12356;;;;;BLINK_TWICE
;20240130101353;20240130_10:13:59,745;1706649239745;1,43985;1,63274;2,08324;3,28334;;;;;BLINK_TWICE
;20240130101353;20240130_10:13:59,759;1706649239759;3,28933;3,79209;3,09852;2,66946;;;;;BLINK_TWICE
;20240130101353;20240130_10:13:59,777;1706649239777;0,883118;2,80123;0,10985;4,02523;;;;;BLINK_TWICE
;20240130101353;20240130_10:13:59,796;1706649239796;3,16842;4,48185;0,36071;3,55368;;;;;BLINK_TWICE
;20240130101353;20240130_10:13:59,810;1706649239810;1,84493;2,84611;2,38529;3,15336;;;;;BLINK_TWICE
;20240130101353;20240130_10:13:59,829;1706649239829;3,38089;2,63009;3,16212;2,64886;;;;;BLINK_TWICE
;20240130101353;20240130_10:13:59,844;1706649239844;3,81209;3,58959;1,59979;2,33203;;;;;BLINK_TWICE
;20240130101353;20240130_10:13:59,862;1706649239862;2,33304;2,92066;1,14885;2,31741;;;;;BLINK_TWICE
;20240130101353;20240130_10:13:59,875;1706649239875;1,69677;2,01378;0,575533;1,62858;;;;;BLINK_TWICE
;20240130101353;20240130_10:13:59,907;1706649239907;4,09221;1,72747;0,24223;1,79551;;;;;RELAX
;20240130101353;20240130_10:13:59,927;1706649239927;3,47638;0,500415;1,14511;1,66766;;;;;RELAX
;20240130101353;20240130_10:13:59,942;1706649239942;3,73888;-0,611542;-0,157342;-0,683336;;;;;RELAX
;20240130101353;20240130_10:13:59,960;1706649239960;2,75531;-0,396198;1,82483;2,00391;;;;;RELAX
;20240130101353;20240130_10:13:59,977;1706649239977;2,79795;-0,387821;-0,171574;0,028923;;;;;RELAX
;20240130101353;20240130_10:13:59,994;1706649239994;2,79795;-0,387821;-0,171574;0,028923;;;;;RELAX
;20240130101353;20240130_10:14:00,009;1706649240009;2,52561;0,238559;0,147431;0,557328;;;;;RELAX
;20240130101353;20240130_10:14:00,036;1706649240036;2,45254;-0,921343;-0,333307;-1,27341;;;;;RELAX
;20240130101353;20240130_10:14:00,061;1706649240061;3,24014;0,194223;0,628708;-0,0908466;;;;;RELAX
;20240130101353;20240130_10:14:00,077;1706649240077;2,94907;-0,455121;0,628708;-0,578906;;;;;RELAX
;20240130101353;20240130_10:14:00,095;1706649240095;1,95615;-1,10656;0,002848;-0,244321;;;;;RELAX
;20240130101353;20240130_10:14:00,110;1706649240110;0,518806;0,452937;-0,093736;0,167208;;;;;RELAX
;20240130101353;20240130_10:14:00,128;1706649240128;2,14269;-1,66786;0,059031;-0,471329;;;;;RELAX
;20240130101353;20240130_10:14:00,142;1706649240142;-0,197612;-1,08083;-0,358501;-0,15884;;;;;RELAX
;20240130101353;20240130_10:14:00,163;1706649240163;-0,0724097;-0,12783;-0,340729;-0,02231;;;;;RELAX
;20240130101353;20240130_10:14:00,177;1706649240177;-0,971409;-1,82667;0,219818;-0,946639;;;;;RELAX
;20240130101353;20240130_10:14:00,194;1706649240194;-0,15553;-2,48628;-2,61947;-2,17396;;;;;RELAX
;20240130101353;20240130_10:14:00,213;1706649240213;-0,802334;-1,91451;-2,11238;-2,47306;;;;;RELAX
;20240130101353;20240130_10:14:00,253;1706649240253;-1,98056;-1,16622;-2,29815;-2,37377;;;;;RELAX
;20240130101353;20240130_10:14:00,277;1706649240277;-3,85872;-2,86646;-2,04721;-1,87132;;;;;RELAX
;20240130101353;20240130_10:14:00,292;1706649240292;-2,96618;-3,12968;-0,153377;-1,64539;;;;;RELAX
;20240130101353;20240130_10:14:00,313;1706649240313;-0,34217;-1,87526;-1,12125;-1,11647;;;;;RELAX
;20240130101353;20240130_10:14:00,326;1706649240326;-3,01324;-1,08559;-1,79826;-1,04811;;;;;RELAX
;20240130101353;20240130_10:14:00,343;1706649240343;-2,23118;-2,07609;-0,039907;-0,0736865;;;;;RELAX
;20240130101353;20240130_10:14:00,363;1706649240363;-2,08191;-0,324592;0,0648085;-0,994699;;;;;RELAX
;20240130101353;20240130_10:14:00,376;1706649240376;-2,34643;-0,0062245;-0,636052;0,225139;;;;;RELAX
;20240130101353;20240130_10:14:00,394;1706649240394;-1,88663;-0,689889;1,36812;-0,868548;;;;;RELAX
;20240130101353;20240130_10:14:00,411;1706649240411;-1,52962;-0,234665;0,001668;0,130353;;;;;RELAX
;20240130101353;20240130_10:14:00,427;1706649240427;-2,61292;-1,81116;-0,319007;-0,0460858;;;;;RELAX
;20240130101353;20240130_10:14:00,443;1706649240443;-2,42017;0,341252;0,228972;-1,55051;;;;;RELAX
;20240130101353;20240130_10:14:00,464;1706649240464;-0,617778;-0,794247;0,0574854;-0,419251;;;;;RELAX
;20240130101353;20240130_10:14:00,477;1706649240477;-1,84769;-0,517154;1,86615;1,05957;;;;;RELAX
;20240130101353;20240130_10:14:00,493;1706649240493;-1,44014;0,621616;0,689428;-0,961624;;;;;RELAX
;20240130101353;20240130_10:14:00,512;1706649240512;0,500635;-0,108172;0,120872;-1,51276;;;;;RELAX
;20240130101353;20240130_10:14:00,526;1706649240526;-0,500217;-0,502187;1,55573;-1,61446;;;;;RELAX
;20240130101353;20240130_10:14:00,544;1706649240544;0,12435;0,055794;-0,496109;0,652212;;;;;RELAX
;20240130101353;20240130_10:14:00,559;1706649240559;0,0644304;-0,442131;-1,14175;1,26875;;;;;RELAX
;20240130101353;20240130_10:14:00,577;1706649240577;0,695304;0,17278;0,529021;-0,930282;;;;;RELAX
;20240130101353;20240130_10:14:00,592;1706649240592;0,139553;0,025186;-1,12477;-0,392393;;;;;RELAX
;20240130101353;20240130_10:14:00,609;1706649240609;0,948747;0,802518;1,58384;0,144693;;;;;RELAX
;20240130101353;20240130_10:14:00,629;1706649240629;1,06001;1,61813;2,27984;1,20758;;;;;RELAX
;20240130101353;20240130_10:14:00,644;1706649240644;0,544459;1,99649;1,04454;1,66021;;;;;RELAX
;20240130101353;20240130_10:14:00,659;1706649240659;0,0550642;1,11774;-1,03724;1,49311;;;;;RELAX
;20240130101353;20240130_10:14:00,677;1706649240677;0,316762;0,00407999;1,89617;0,475654;;;;;RELAX
;20240130101353;20240130_10:14:00,693;1706649240693;-0,093378;-0,0464063;0,787086;0,629718;;;;;RELAX
;20240130101353;20240130_10:14:00,711;1706649240711;-1,50226;0,226638;0,006157;0,862623;;;;;RELAX
;20240130101353;20240130_10:14:00,727;1706649240727;-1,47035;-0,623978;-0,395938;0,492494;;;;;RELAX
;20240130101353;20240130_10:14:00,743;1706649240743;-0,820043;-0,359293;-0,167637;-0,287888;;;;;RELAX
;20240130101353;20240130_10:14:00,760;1706649240760;-1,78304;-1,84847;0,888839;-0,912994;;;;;RELAX
;20240130101353;20240130_10:14:00,776;1706649240776;-3,43104;-0,13853;-0,0244441;-0,830602;;;;;RELAX
;20240130101353;20240130_10:14:00,796;1706649240796;-3,44725;-0,950088;-2,11678;-0,830602;;;;;RELAX
;20240130101353;20240130_10:14:00,813;1706649240813;-1,64126;0,363993;-1,14382;0,332227;;;;;RELAX
;20240130101353;20240130_10:14:00,832;1706649240832;-1,49101;0,191913;-0,917353;0,781454;;;;;RELAX
;20240130101353;20240130_10:14:00,843;1706649240843;-0,064688;1,29585;-0,523662;0,12678;;;;;RELAX
;20240130101353;20240130_10:14:00,861;1706649240861;0,031555;1,20758;-0,0093557;0,442641;;;;;RELAX
;20240130101353;20240130_10:14:00,879;1706649240879;-1,42213;0,709828;-0,186003;1,72025;;;;;RELAX
;20240130101353;20240130_10:14:00,891;1706649240891;-0,21836;-0,184772;0,307484;0,439462;;;;;RELAX
;20240130101353;20240130_10:14:00,910;1706649240910;-0,340497;-0,12566;-0,066063;0,793052;;;;;RELAX
;20240130101353;20240130_10:14:00,929;1706649240929;-0,199742;-0,236808;-0,538977;0,313297;;;;;RELAX
;20240130101353;20240130_10:14:00,945;1706649240945;-0,642525;-0,196301;0,492887;0,607372;;;;;RELAX
;20240130101353;20240130_10:14:00,960;1706649240960;1,38757;0,379809;0,886731;-1,79483;;;;;RELAX
;20240130101353;20240130_10:14:00,977;1706649240977;1,90033;1,65907;0,186573;-0,0078419;;;;;RELAX
;20240130101353;20240130_10:14:00,994;1706649240994;3,39688;0,094944;0,945209;0,225821;;;;;RELAX
;20240130101353;20240130_10:14:01,009;1706649241009;3,50727;1,60783;-0,462022;-0,039883;;;;;RELAX
;20240130101353;20240130_10:14:01,027;1706649241027;3,72751;2,37843;0,636768;0,593787;;;;;RELAX
;20240130101353;20240130_10:14:01,043;1706649241043;3,02334;1,57499;0,500656;0,220754;;;;;RELAX
;20240130101353;20240130_10:14:01,061;1706649241061;0,29319;0,163165;-0,0919392;0,0497751;;;;;RELAX
;20240130101353;20240130_10:14:01,079;1706649241079;2,99356;1,57425;1,69576;0,200081;;;;;RELAX
;20240130101353;20240130_10:14:01,094;1706649241094;2,42609;0,668638;0,788543;-0,844025;;;;;RELAX
;20240130101353;20240130_10:14:01,109;1706649241109;4,12024;0,804797;1,04911;0,116889;;;;;RELAX
;20240130101353;20240130_10:14:01,127;1706649241127;1,73379;-0,0472765;0,724462;-0,441369;;;;;RELAX
;20240130101353;20240130_10:14:01,143;1706649241143;0,26446;-0,489307;0,686293;-0,380177;;;;;RELAX
;20240130101353;20240130_10:14:01,161;1706649241161;1,78179;-0,538059;0,581438;-0,568715;;;;;RELAX
;20240130101353;20240130_10:14:01,177;1706649241177;1,33003;-0,205506;0,0765524;-0,569445;;;;;RELAX
;20240130101353;20240130_10:14:01,194;1706649241194;1,55006;-0,418462;0,228491;0,893569;;;;;RELAX
;20240130101353;20240130_10:14:01,209;1706649241209;1,23833;0,048919;0,382278;-1,19815;;;;;RELAX
;20240130101353;20240130_10:14:01,228;1706649241228;1,95813;0,580127;-0,283868;0,0799054;;;;;RELAX
;20240130101353;20240130_10:14:01,244;1706649241244;0,184069;-0,670294;0,890087;0,014209;;;;;RELAX
;20240130101353;20240130_10:14:01,261;1706649241261;1,33337;-0,290059;-0,395676;-0,069348;;;;;RELAX
;20240130101353;20240130_10:14:01,275;1706649241275;1,48495;-0,337927;-0,573581;-0,246512;;;;;RELAX
;20240130101353;20240130_10:14:01,294;1706649241294;-0,10256;-0,913368;0,130248;-0,918566;;;;;RELAX
;20240130101353;20240130_10:14:01,309;1706649241309;0,240439;-0,452184;-0,951989;-0,395605;;;;;RELAX
;20240130101353;20240130_10:14:01,327;1706649241327;-0,016891;0,258358;-0,235031;-0,485196;;;;;RELAX
;20240130101353;20240130_10:14:01,344;1706649241344;-0,009741;-0,462102;0,385697;-1,64026;;;;;RELAX
;20240130101353;20240130_10:14:01,360;1706649241360;-0,747818;-0,076232;0,0595995;-0,541674;;;;;RELAX
;20240130101353;20240130_10:14:01,379;1706649241379;-0,332524;0,364998;-0,0858477;-0,303817;;;;;RELAX
;20240130101353;20240130_10:14:01,394;1706649241394;0,388944;-0,144211;0,433429;-0,244262;;;;;RELAX
;20240130101353;20240130_10:14:01,415;1706649241415;-0,469088;-0,765597;1,30351;0,330138;;;;;RELAX
;20240130101353;20240130_10:14:01,428;1706649241428;-0,501116;1,00787;-1,18349;0,746633;;;;;RELAX
;20240130101353;20240130_10:14:01,443;1706649241443;0,491012;0,441034;0,14655;-0,397617;;;;;RELAX
;20240130101353;20240130_10:14:01,464;1706649241464;-0,033405;0,354535;1,03329;0,12687;;;;;RELAX
;20240130101353;20240130_10:14:01,476;1706649241476;-2,72463;-0,16019;-1,28615;-0,689344;;;;;RELAX
;20240130101353;20240130_10:14:01,494;1706649241494;-3,83927;-0,915678;-1,18835;0,575207;;;;;RELAX
;20240130101353;20240130_10:57:00,652;1706651820652;-0,000336502;-0,000246354;-0,000370544;-0,000565321;;;;;RELAX
;20240130101353;20240130_10:57:00,680;1706651820680;-0,000306022;-0,000220929;-0,000334486;-0,000513525;;;;;RELAX
;20240130101353;20240130_10:57:00,714;1706651820714;-0,000225303;-0,000169195;-0,000245551;-0,00040001;;;;;RELAX
;20240130101353;20240130_10:57:00,732;1706651820732;-0,000225303;-0,000169195;-0,000242299;-0,000385157;;;;;RELAX
;20240130101353;20240130_10:57:00,745;1706651820745;-0,000175565;-0,000122755;-0,000193095;-0,00032082;;;;;RELAX
;20240130101353;20240130_10:57:00,764;1706651820764;-0,000138675;-8,83769;-0,000142668;-0,000242068;;;;;RELAX
;20240130101353;20240130_10:57:00,779;1706651820779;-0,000130567;-8,83769;-0,000142668;-0,000242068;;;;;RELAX
;20240130101353;20240130_10:57:00,795;1706651820795;-0,87432;-6,44565;-0,000105673;-0,000196801;;;;;RELAX
;20240130101353;20240130_10:57:00,812;1706651820812;-8,51848;-6,03102;-0,89835;-0,000182707;;;;;RELAX
;20240130101353;20240130_10:57:00,829;1706651820829;-6,54169;-4,31577;-6,50141;-0,000151693;;;;;RELAX
;20240130101353;20240130_10:57:00,847;1706651820847;-6,26517;-4,31507;-5,64065;-0,000141481;;;;;RELAX
;20240130101353;20240130_10:57:00,867;1706651820867;-2,55749;-2,17676;-0,03536;-0,000102406;;;;;RELAX
;20240130101353;20240130_10:57:00,897;1706651820897;-1,43604;-0,744389;-1,53181;-8,32451;;;;;RELAX
;20240130101353;20240130_10:57:00,915;1706651820915;-0,826194;-0,606114;-1,40763;-7,09869;;;;;RELAX
;20240130101353;20240130_10:57:00,950;1706651820950;-1,29807;-0,19891;-0,594204;-6,76413;;;;;RELAX
;20240130101353;20240130_10:57:00,981;1706651820981;0,265564;-1,67916;0,523964;-5,87096;;;;;RELAX
;20240130101353;20240130_10:57:01,006;1706651821006;0,329694;-0,859086;1,26995;-5,18285;;;;;RELAX
;20240130101353;20240130_10:57:01,029;1706651821029;-0,046392;-0,923658;1,28553;-4,55118;;;;;RELAX
;20240130101353;20240130_10:57:01,047;1706651821047;0,490619;-1,15434;1,39926;-4,47991;;;;;RELAX
;20240130101353;20240130_10:57:01,062;1706651821062;1,10992;0,188228;1,44922;-4,47991;;;;;RELAX
;20240130101353;20240130_10:57:01,078;1706651821078;0,15842;0,910335;1,93619;-0,42057;;;;;RELAX
;20240130101353;20240130_10:57:01,095;1706651821095;1,12283;0,710743;2,47474;-2,73698;;;;;RELAX
;20240130101353;20240130_10:57:01,116;1706651821116;0,396617;0,349611;0,393169;-4,02026;;;;;RELAX
;20240130101353;20240130_10:57:01,145;1706651821145;1,48432;-0,0153203;1,19979;-4,00345;;;;;RELAX
;20240130101353;20240130_10:57:01,165;1706651821165;0,571162;0,295221;1,03511;-3,61691;;;;;RELAX
;20240130101353;20240130_10:57:01,182;1706651821182;-1,03397;-1,19977;-0,335456;-4,50041;;;;;RELAX
;20240130101353;20240130_10:57:01,198;1706651821198;-0,074881;-0,827331;0,509862;-4,61777;;;;;RELAX
;20240130101353;20240130_10:57:01,211;1706651821211;-0,660449;0,216639;0,902115;-3,90929;;;;;RELAX
;20240130101353;20240130_10:57:01,229;1706651821229;-0,0018436;0,164197;0,825534;-0,04729;;;;;RELAX
;20240130101353;20240130_10:57:01,246;1706651821246;-0,466834;-0,505009;0,870267;-3,95962;;;;;RELAX
;20240130101353;20240130_10:57:01,264;1706651821264;0,191012;0,203789;0,559845;-4,32518;;;;;RELAX
;20240130101353;20240130_10:57:01,277;1706651821277;0,605115;0,112427;0,606856;-4,56793;;;;;RELAX
;20240130101353;20240130_10:57:01,298;1706651821298;0,0547002;-0,699491;0,045068;-5,32352;;;;;RELAX
;20240130101353;20240130_10:57:01,313;1706651821313;-0,235653;-0,16411;-0,971516;-5,67328;;;;;RELAX
;20240130101353;20240130_10:57:01,332;1706651821332;-0,188396;0,00250149;0,174043;-4,73651;;;;;RELAX
;20240130101353;20240130_10:57:01,349;1706651821349;-0,188396;0,00250149;0,174043;-4,73651;;;;;RELAX
;20240130101353;20240130_10:57:01,362;1706651821362;1,25744;0,270514;0,546953;-0,04767;;;;;RELAX
;20240130101353;20240130_10:57:01,381;1706651821381;0,12571;0,346194;-0,283107;-4,87874;;;;;RELAX
;20240130101353;20240130_10:57:01,395;1706651821395;0,737252;0,439076;-0,742564;-4,79713;;;;;RELAX
;20240130101353;20240130_10:57:01,410;1706651821410;1,06459;0,565666;-0,188737;-4,95521;;;;;RELAX
;20240130101353;20240130_10:57:01,430;1706651821430;1,19437;1,40951;-0,435213;-4,60609;;;;;RELAX
;20240130101353;20240130_10:57:01,461;1706651821461;-0,725545;0,369608;-0,652025;-4,60679;;;;;RELAX
;20240130101353;20240130_10:57:01,478;1706651821478;-1,71256;-1,61109;-2,51961;-5,78157;;;;;RELAX
;20240130101353;20240130_10:57:01,499;1706651821499;-1,03987;-0,950099;-1,60709;-5,58467;;;;;RELAX
;20240130101353;20240130_10:57:01,515;1706651821515;-1,38273;-1,03261;-2,10118;-5,19537;;;;;RELAX
;20240130101353;20240130_10:57:01,530;1706651821530;-1,71636;-1,64913;-2,33802;-5,57818;;;;;RELAX
;20240130101353;20240130_10:57:01,545;1706651821545;-2,00215;-1,62882;-2,35474;-5,95243;;;;;RELAX
;20240130101353;20240130_10:57:01,565;1706651821565;-1,09789;-1,81262;-0,29366;-5,02157;;;;;RELAX
;20240130101353;20240130_10:57:01,578;1706651821578;-0,297151;-0,953742;-0,952281;-5,14183;;;;;RELAX
;20240130101353;20240130_10:57:01,596;1706651821596;-2,63149;-1,15731;-0,23032;-5,11445;;;;;RELAX
;20240130101353;20240130_10:57:01,611;1706651821611;-2,02739;-0,508948;-2,19887;-0,44116;;;;;RELAX
;20240130101353;20240130_10:57:01,629;1706651821629;-1,25716;-0,961487;-1,75761;-5,21122;;;;;RELAX
;20240130101353;20240130_10:57:01,643;1706651821643;-1,32117;-1,22262;-1,92997;-4,87881;;;;;RELAX
;20240130101353;20240130_10:57:01,663;1706651821663;-0,01845;-1,11407;-1,73904;-4,83249;;;;;RELAX
;20240130101353;20240130_10:57:01,683;1706651821683;-0,077822;-0,755239;-0,842593;-0,45455;;;;;RELAX
;20240130101353;20240130_10:57:01,696;1706651821696;-0,869313;-0,934147;-1,41078;-5,24523;;;;;RELAX
;20240130101353;20240130_10:57:01,711;1706651821711;-0,869313;-0,934147;-1,41078;-5,24523;;;;;RELAX
;20240130101353;20240130_10:57:01,728;1706651821728;-2,44129;-1,77979;-1,61639;-4,50893;;;;;RELAX
;20240130101353;20240130_10:57:01,747;1706651821747;-2,10929;-2,18847;-1,13708;-0,50868;;;;;RELAX
;20240130101353;20240130_10:57:01,760;1706651821760;-1,03152;-0,895576;-2,09001;-5,28255;;;;;RELAX
;20240130101353;20240130_10:57:01,777;1706651821777;-0,805664;-0,283443;-1,21452;-3,61524;;;;;RELAX
;20240130101353;20240130_10:57:01,796;1706651821796;-1,60073;-1,07458;-2,18115;-4,75832;;;;;RELAX
;20240130101353;20240130_10:57:01,815;1706651821815;-1,76556;-0,11143;-0,976893;-4,67701;;;;;RELAX
;20240130101353;20240130_10:57:01,827;1706651821827;-0,830144;-0,862563;-0,871361;-4,66758;;;;;RELAX
;20240130101353;20240130_10:57:01,843;1706651821843;-1,69474;-0,471889;-1,30339;-2,87576;;;;;RELAX
;20240130101353;20240130_10:57:01,862;1706651821862;-1,51088;-1,12709;-2,27459;-3,11653;;;;;RELAX
;20240130101353;20240130_10:57:01,878;1706651821878;-2,39701;-1,22275;-1,79568;-4,01535;;;;;RELAX
;20240130101353;20240130_10:57:01,893;1706651821893;-3,27037;-2,70092;-2,95912;-4,70814;;;;;RELAX
;20240130101353;20240130_10:57:01,910;1706651821910;-1,60508;-1,29166;-0,18553;-3,13829;;;;;RELAX
;20240130101353;20240130_10:57:01,929;1706651821929;-0,700981;-0,962162;-0,043758;-2,73002;;;;;RELAX
;20240130101353;20240130_10:57:01,952;1706651821952;-1,67101;-1,49958;-1,47191;-4,09959;;;;;RELAX
;20240130101353;20240130_10:57:01,979;1706651821979;-1,13115;-1,55205;-1,21817;-2,60587;;;;;RELAX
;20240130101353;20240130_10:57:01,994;1706651821994;-1,73076;-1,07013;-0,573066;-2,83007;;;;;RELAX
;20240130101353;20240130_10:57:02,011;1706651822011;-0,927172;-1,38842;-0,620163;-2,62945;;;;;RELAX
;20240130101353;20240130_10:57:02,028;1706651822028;-0,102672;-0,683105;0,163674;-2,47908;;;;;RELAX
;20240130101353;20240130_10:57:02,046;1706651822046;-1,35471;-0,285735;-0,358964;-2,65046;;;;;RELAX
;20240130101353;20240130_10:57:02,064;1706651822064;-1,39756;-0,848336;-0,112107;-2,51489;;;;;RELAX
;20240130101353;20240130_10:57:02,088;1706651822088;-1,44359;-1,29597;-0,767639;-2,68671;;;;;RELAX
;20240130101353;20240130_10:57:02,113;1706651822113;-1,43054;-0,662887;-0,050661;-2,78881;;;;;RELAX
;20240130101353;20240130_10:57:02,129;1706651822129;-1,27615;-0,990932;-0,739643;-2,43742;;;;;RELAX
;20240130101353;20240130_10:57:02,145;1706651822145;-0,456987;-0,411037;0,740684;-3,11179;;;;;RELAX
;20240130101353;20240130_10:57:02,162;1706651822162;1,05918;-0,133354;0,866027;-2,45352;;;;;RELAX
;20240130101353;20240130_10:57:02,178;1706651822178;0,0741934;0,691027;0,693875;-1,31961;;;;;RELAX
;20240130101353;20240130_10:57:02,194;1706651822194;-2,81542;-2,14521;-0,588008;-3,27994;;;;;RELAX
;20240130101353;20240130_10:57:02,213;1706651822213;-1,20046;-1,57069;-0,249506;-0,03537;;;;;RELAX
;20240130101353;20240130_10:57:02,228;1706651822228;-0,15735;-1,40692;0,00903378;-3,45476;;;;;RELAX
;20240130101353;20240130_10:57:02,245;1706651822245;-1,71177;-1,40692;0,00903378;-3,62951;;;;;RELAX
;20240130101353;20240130_10:57:02,263;1706651822263;0,107683;-0,480799;0,552679;-2,05676;;;;;RELAX
;20240130101353;20240130_10:57:02,278;1706651822278;-0,10451;-2,19068;0,201406;-2,75622;;;;;RELAX
;20240130101353;20240130_10:57:02,295;1706651822295;-1,29444;-0,16069;-0,343914;-3,27818;;;;;RELAX
;20240130101353;20240130_10:57:02,311;1706651822311;-0,032071;-1,12485;0,0654955;-2,78104;;;;;RELAX
;20240130101353;20240130_10:57:02,330;1706651822330;-0,199804;-0,776357;-0,634298;-2,15354;;;;;RELAX
;20240130101353;20240130_10:57:02,344;1706651822344;-0,0758563;-0,641677;-0,445339;-2,19549;;;;;RELAX
;20240130101353;20240130_10:57:02,360;1706651822360;-0,613853;-1,08661;-1,03135;-2,51173;;;;;RELAX
;20240130101353;20240130_10:57:02,377;1706651822377;0,0934298;-0,196151;-0,905253;-2,31425;;;;;RELAX
;20240130101353;20240130_10:57:02,395;1706651822395;0,15278;0,579663;0,586841;-1,67336;;;;;RELAX
;20240130101353;20240130_10:57:02,411;1706651822411;-0,0254419;0,193372;0,00316566;-2,43716;;;;;RELAX
;20240130101353;20240130_10:57:02,429;1706651822429;1,75561;1,36867;-0,634919;-1,66834;;;;;RELAX
;20240130101353;20240130_10:57:02,445;1706651822445;1,75561;1,36867;-0,634919;-1,66834;;;;;RELAX
;20240130101353;20240130_10:57:02,466;1706651822466;2,56661;2,40242;0,828996;-0,711841;;;;;RELAX
;20240130101353;20240130_10:57:02,481;1706651822481;1,76164;1,60116;0,500695;-1,22039;;;;;RELAX
;20240130101353;20240130_10:57:02,493;1706651822493;0,406788;0,097122;0,240057;-1,63171;;;;;RELAX
;20240130101353;20240130_10:57:02,510;1706651822510;0,059937;0,11519;0,420886;-1,40523;;;;;RELAX
;20240130101353;20240130_10:57:02,530;1706651822530;2,58219;3,04741;0,11429;-0,0707401;;;;;RELAX
;20240130101353;20240130_10:57:02,544;1706651822544;0,562246;1,41667;-0,210526;-0,699825;;;;;RELAX
;20240130101353;20240130_10:57:02,561;1706651822561;1,04068;0,366751;-1,47896;-0,02013;;;;;RELAX
;20240130101353;20240130_10:57:02,577;1706651822577;2,50094;2,26277;0,174025;-0,196296;;;;;RELAX
;20240130101353;20240130_10:57:02,594;1706651822594;0,979715;0,16352;0,649136;-0,415964;;;;;RELAX
;20240130101353;20240130_10:57:02,610;1706651822610;-1,15478;-0,0062978;-1,57694;-1,43734;;;;;RELAX
;20240130101353;20240130_10:57:02,627;1706651822627;-1,16356;-0,932713;-1,12634;-2,26104;;;;;RELAX
;20240130101353;20240130_10:57:02,644;1706651822644;-0,534623;0,341095;-0,798334;-0,13901;;;;;RELAX
;20240130101353;20240130_10:57:02,675;1706651822675;-0,263664;0,441634;-0,482505;-1,31308;;;;;BLINK
;20240130101353;20240130_10:57:02,694;1706651822694;-1,69345;-1,45817;-0,092827;-2,02968;;;;;BLINK
;20240130101353;20240130_10:57:02,713;1706651822713;-0,574885;-0,560893;-0,0115674;-0,797925;;;;;BLINK
;20240130101353;20240130_10:57:02,732;1706651822732;-0,079714;-0,638373;-1,41134;-1,77156;;;;;BLINK
;20240130101353;20240130_10:57:02,743;1706651822743;-0,398249;-0,269443;0,129608;-1,47237;;;;;BLINK
;20240130101353;20240130_10:57:02,759;1706651822759;-0,993301;-1,35356;0,072718;-2,10696;;;;;BLINK
;20240130101353;20240130_10:57:02,777;1706651822777;-0,675398;-0,371486;-0,341045;-0,18354;;;;;BLINK
;20240130101353;20240130_10:57:02,794;1706651822794;-0,675398;-0,371486;-0,341045;-0,18354;;;;;BLINK
;20240130101353;20240130_10:57:02,813;1706651822813;-0,15078;-0,720719;-0,965464;-1,96712;;;;;BLINK
;20240130101353;20240130_10:57:02,828;1706651822828;-0,13055;-0,11347;-0,12709;-2,16321;;;;;BLINK
;20240130101353;20240130_10:57:02,846;1706651822846;-1,76523;-1,68789;-1,30613;-0,14642;;;;;BLINK
;20240130101353;20240130_10:57:02,861;1706651822861;-1,17208;-1,28588;-1,00968;-2,18569;;;;;BLINK
;20240130101353;20240130_10:57:02,878;1706651822878;-0,300765;-0,861129;-1,03577;-0,070082;;;;;BLINK
;20240130101353;20240130_10:57:02,894;1706651822894;-0,650295;0,0697368;-0,342589;-0,621914;;;;;BLINK
;20240130101353;20240130_10:57:02,911;1706651822911;-1,59723;-1,85029;-0,088742;-1,56688;;;;;BLINK
;20240130101353;20240130_10:57:02,930;1706651822930;-2,27893;-2,39744;-0,19141;-1,69184;;;;;BLINK
;20240130101353;20240130_10:57:02,943;1706651822943;-3,68446;-3,01868;-2,50421;-2,18403;;;;;BLINK
;20240130101353;20240130_10:57:02,960;1706651822960;-7,08618;-0,77041;-5,95479;-0,64072;;;;;BLINK
;20240130101353;20240130_10:57:02,977;1706651822977;-9,83959;-9,54256;-8,76073;-8,44386;;;;;BLINK
;20240130101353;20240130_10:57:02,994;1706651822994;-9,30399;-8,96944;-8,60916;-7,43792;;;;;BLINK
;20240130101353;20240130_10:57:03,015;1706651823015;-7,32598;-6,76963;-6,16631;-5,60927;;;;;BLINK
;20240130101353;20240130_10:57:03,028;1706651823028;-6,06451;-5,23558;-3,89261;-0,41984;;;;;BLINK
;20240130101353;20240130_10:57:03,044;1706651823044;-0,007733;0,512182;0,0748005;-0,230063;;;;;BLINK
;20240130101353;20240130_10:57:03,061;1706651823061;-0,419602;1,00431;0,0805983;-0,435127;;;;;BLINK
;20240130101353;20240130_10:57:03,078;1706651823078;1,13423;1,36291;1,24251;0,912661;;;;;BLINK
;20240130101353;20240130_10:57:03,094;1706651823094;2,87184;3,50264;0,31519;1,43345;;;;;BLINK
;20240130101353;20240130_10:57:03,111;1706651823111;3,37917;3,79856;3,61184;2,34688;;;;;BLINK
;20240130101353;20240130_10:57:03,130;1706651823130;2,77601;2,82525;2,93698;0,094152;;;;;BLINK
;20240130101353;20240130_10:57:03,146;1706651823146;0,23086;2,50796;3,23913;0,778523;;;;;BLINK
;20240130101353;20240130_10:57:03,161;1706651823161;1,97643;2,14428;1,99661;1,31302;;;;;BLINK
;20240130101353;20240130_10:57:03,177;1706651823177;2,81944;1,89074;2,78037;0,926154;;;;;BLINK
;20240130101353;20240130_10:57:03,194;1706651823194;2,01739;1,18311;2,10984;0,745858;;;;;BLINK
;20240130101353;20240130_10:57:03,212;1706651823212;0,502198;1,00762;1,57888;-0,333128;;;;;BLINK
;20240130101353;20240130_10:57:03,227;1706651823227;-0,174159;0,208511;0,925882;-0,239995;;;;;BLINK
;20240130101353;20240130_10:57:03,244;1706651823244;2,01518;0,700031;1,07552;0,791396;;;;;BLINK
;20240130101353;20240130_10:57:03,262;1706651823262;2,43262;0,742111;1,76533;0,341093;;;;;BLINK
;20240130101353;20240130_10:57:03,278;1706651823278;2,10415;1,88164;1,67495;0,867271;;;;;BLINK
;20240130101353;20240130_10:57:03,293;1706651823293;-0,244226;-0,397411;1,05095;-0,0541204;;;;;BLINK
;20240130101353;20240130_10:57:03,312;1706651823312;0,018441;0,515178;1,27161;0,806492;;;;;BLINK
;20240130101353;20240130_10:57:03,328;1706651823328;1,45549;1,45723;1,43018;1,12548;;;;;BLINK
;20240130101353;20240130_10:57:03,342;1706651823342;2,31169;1,96058;1,79856;1,27785;;;;;BLINK
;20240130101353;20240130_10:57:03,361;1706651823361;1,27085;1,73169;1,96242;1,31738;;;;;BLINK
;20240130101353;20240130_10:57:03,376;1706651823376;1,96515;2,38731;1,27117;1,41152;;;;;BLINK
;20240130101353;20240130_10:57:03,396;1706651823396;1,83222;0,296226;1,07575;0,630016;;;;;BLINK
;20240130101353;20240130_10:57:03,412;1706651823412;1,74584;0,957827;1,12811;-0,043756;;;;;BLINK
;20240130101353;20240130_10:57:03,428;1706651823428;1,42529;0,854021;0,627918;-0,359279;;;;;BLINK
;20240130101353;20240130_10:57:03,443;1706651823443;0,935218;0,464124;1,11313;-0,062072;;;;;BLINK
;20240130101353;20240130_10:57:03,463;1706651823463;0,16111;1,35939;1,06461;0,190613;;;;;BLINK
;20240130101353;20240130_10:57:03,478;1706651823478;2,10918;1,48401;1,62872;-0,0749847;;;;;BLINK
;20240130101353;20240130_10:57:03,496;1706651823496;2,11214;1,13744;1,09555;-0,933388;;;;;BLINK
;20240130101353;20240130_10:57:03,514;1706651823514;1,52732;0,548993;1,01523;-1,03517;;;;;BLINK
;20240130101353;20240130_10:57:03,528;1706651823528;3,01798;1,47619;1,43757;0,255787;;;;;BLINK
;20240130101353;20240130_10:57:03,546;1706651823546;2,59306;1,39101;1,05204;-0,139783;;;;;BLINK
;20240130101353;20240130_10:57:03,561;1706651823561;0,130472;-0,114942;-0,099354;-1,60506;;;;;BLINK
;20240130101353;20240130_10:57:03,581;1706651823581;0,239158;0,195329;-2,06303;-1,62416;;;;;BLINK
;20240130101353;20240130_10:57:03,595;1706651823595;-0,088549;-1,25718;-2,27046;-1,49086;;;;;BLINK
;20240130101353;20240130_10:57:03,611;1706651823611;-1,29733;-0,753949;-2,20805;-0,15446;;;;;BLINK
;20240130101353;20240130_10:57:03,626;1706651823626;-1,23281;-0,610035;-2,20805;-0,15446;;;;;BLINK
;20240130101353;20240130_10:57:03,644;1706651823644;-1,14369;0,182035;-1,37077;-0,13017;;;;;BLINK
;20240130101353;20240130_10:57:03,666;1706651823666;-0,672829;-0,147708;-1,90449;-1,43188;;;;;BLINK
;20240130101353;20240130_10:57:03,676;1706651823676;-0,503247;-0,714607;-1,68962;-1,43188;;;;;BLINK
;20240130101353;20240130_10:57:03,693;1706651823693;0,707281;0,916334;-0,657534;-0,069503;;;;;BLINK
;20240130101353;20240130_10:57:03,711;1706651823711;-0,957951;-1,29711;-2,44018;-1,12471;;;;;BLINK
;20240130101353;20240130_10:57:03,727;1706651823727;-1,57324;-1,14168;-1,53526;-1,19248;;;;;BLINK
;20240130101353;20240130_10:57:03,742;1706651823742;-0,545255;-0,694495;-1,46301;-0,13887;;;;;BLINK
;20240130101353;20240130_10:57:03,762;1706651823762;-1,50625;-1,08294;-2,27071;-1,10904;;;;;BLINK
;20240130101353;20240130_10:57:03,778;1706651823778;-0,807413;-0,978501;-1,75852;-0,837912;;;;;BLINK
;20240130101353;20240130_10:57:03,793;1706651823793;-0,715007;-0,978501;-1,75852;-0,938422;;;;;BLINK
;20240130101353;20240130_10:57:03,809;1706651823809;-0,941247;-0,347692;-1,88643;-0,868886;;;;;BLINK
;20240130101353;20240130_10:57:03,827;1706651823827;-0,889809;-0,747058;-1,63729;-1,50529;;;;;BLINK
;20240130101353;20240130_10:57:03,844;1706651823844;-1,38984;-1,87024;-2,16697;-1,36147;;;;;BLINK
;20240130101353;20240130_10:57:03,863;1706651823863;-0,730077;-1,70522;-1,78968;-1,89665;;;;;BLINK
;20240130101353;20240130_10:57:03,878;1706651823878;0,00696017;-0,734777;-1,35634;-1,24308;;;;;BLINK
;20240130101353;20240130_10:57:03,893;1706651823893;0,0206965;-0,765898;-1,23885;-0,746792;;;;;BLINK
;20240130101353;20240130_10:57:03,909;1706651823909;-1,04937;-1,55266;-2,00779;-1,19953;;;;;BLINK
;20240130101353;20240130_10:57:03,928;1706651823928;-0,537779;-0,558713;-1,69859;-0,765292;;;;;BLINK
;20240130101353;20240130_10:57:03,946;1706651823946;-0,25375;-1,18049;-2,62924;-1,20011;;;;;BLINK
;20240130101353;20240130_10:57:03,961;1706651823961;-0,096051;-1,59143;-1,48219;-0,954438;;;;;BLINK
;20240130101353;20240130_10:57:03,976;1706651823976;0,0861775;-0,0944238;-1,38993;-0,876103;;;;;BLINK
;20240130101353;20240130_10:57:03,996;1706651823996;-0,647697;-0,359249;-0,993412;-0,858651;;;;;BLINK
;20240130101353;20240130_10:57:04,011;1706651824011;-0,053924;-0,0322629;-0,918617;-0,047944;;;;;BLINK
;20240130101353;20240130_10:57:04,028;1706651824028;0,432172;0,347919;-0,966059;0,0881294;;;;;BLINK
;20240130101353;20240130_10:57:04,043;1706651824043;-0,758595;-0,0639323;-1,67375;-0,357742;;;;;BLINK
;20240130101353;20240130_10:57:04,059;1706651824059;-0,468502;-0,525752;-0,875335;-0,430655;;;;;BLINK
;20240130101353;20240130_10:57:04,076;1706651824076;0,0954225;-0,521486;-0,709461;-0,601349;;;;;BLINK
;20240130101353;20240130_10:57:04,093;1706651824093;-0,159789;-0,0148046;-0,153489;-0,653698;;;;;BLINK
;20240130101353;20240130_10:57:04,110;1706651824110;0,976814;0,472011;0,585208;-0,0652741;;;;;BLINK
;20240130101353;20240130_10:57:04,126;1706651824126;0,635196;1,08073;1,09685;0,500192;;;;;BLINK
;20240130101353;20240130_10:57:04,142;1706651824142;0,458493;0,609558;-0,0063269;-0,00072229;;;;;BLINK
;20240130101353;20240130_10:57:04,160;1706651824160;-0,106767;0,053041;0,569893;-0,054919;;;;;BLINK
;20240130101353;20240130_10:57:04,180;1706651824180;-0,616028;0,656648;0,438008;0,0290203;;;;;BLINK
;20240130101353;20240130_10:57:04,197;1706651824197;-1,51396;-0,12126;-0,561661;-1,00911;;;;;BLINK
;20240130101353;20240130_10:57:04,215;1706651824215;0,646096;0,856227;1,30845;0,795252;;;;;BLINK
;20240130101353;20240130_10:57:04,227;1706651824227;1,00944;0,291893;1,71078;0,0847567;;;;;BLINK
;20240130101353;20240130_10:57:04,243;1706651824243;0,975284;-0,00396247;1,43479;-0,673763;;;;;BLINK
;20240130101353;20240130_10:57:04,259;1706651824259;-1,45927;-0,462125;0,488478;-0,100016;;;;;BLINK
;20240130101353;20240130_10:57:04,276;1706651824276;-0,085666;0,245136;1,25194;-0,0368735;;;;;BLINK
;20240130101353;20240130_10:57:04,293;1706651824293;-0,574908;-0,0085612;0,11728;0,710974;;;;;BLINK
;20240130101353;20240130_10:57:04,311;1706651824311;-0,489235;-0,0179192;0,860001;0,116445;;;;;BLINK
;20240130101353;20240130_10:57:04,326;1706651824326;-0,170592;-0,114179;1,60367;-0,0964898;;;;;BLINK
;20240130101353;20240130_10:57:04,343;1706651824343;0,397962;-0,347575;1,81491;-0,239084;;;;;BLINK
;20240130101353;20240130_10:57:04,359;1706651824359;-0,181571;0,722518;0,13751;0,431367;;;;;BLINK
;20240130101353;20240130_10:57:04,376;1706651824376;0,436045;0,177117;1,08394;-0,770845;;;;;BLINK
;20240130101353;20240130_10:57:04,392;1706651824392;-0,515191;-0,129479;0,821308;0,0233642;;;;;BLINK
;20240130101353;20240130_10:57:04,412;1706651824412;-0,901237;0,775191;0,616602;1,25106;;;;;BLINK
;20240130101353;20240130_10:57:04,431;1706651824431;-1,13948;-0,020812;0,806551;-0,329063;;;;;BLINK
;20240130101353;20240130_10:57:04,442;1706651824442;-0,623327;-0,184624;1,15078;-1,00769;;;;;BLINK
;20240130101353;20240130_10:57:04,460;1706651824460;-0,588436;0,431339;0,975557;0,712425;;;;;BLINK
;20240130101353;20240130_10:57:04,476;1706651824476;-0,459145;0,281802;1,44805;0,0635611;;;;;BLINK
;20240130101353;20240130_10:57:04,492;1706651824492;0,574218;1,29923;1,60285;0,155727;;;;;BLINK
;20240130101353;20240130_10:57:04,509;1706651824509;0,826565;0,215443;1,09747;-2,36E-06;;;;;BLINK
;20240130101353;20240130_10:57:04,530;1706651824530;1,43016;0,950714;2,02974;-2,36E-06;;;;;BLINK
;20240130101353;20240130_10:57:04,543;1706651824543;0,754896;-0,630418;1,11251;-0,977879;;;;;BLINK
;20240130101353;20240130_10:57:04,559;1706651824559;0,913823;-0,367659;1,28449;-0,964341;;;;;BLINK
;20240130101353;20240130_10:57:04,582;1706651824582;-0,666672;-0,883083;0,288248;-1,87077;;;;;BLINK
;20240130101353;20240130_10:57:04,595;1706651824595;-0,201661;-1,30334;-0,524544;-1,79802;;;;;BLINK
;20240130101353;20240130_10:57:04,612;1706651824612;0,471743;-0,855379;0,108286;-1,18614;;;;;BLINK
;20240130101353;20240130_10:57:04,629;1706651824629;2,76799;1,26699;0,16175;-0,0068909;;;;;BLINK
;20240130101353;20240130_10:57:04,643;1706651824643;1,86819;1,02477;-0,264622;-0,078135;;;;;BLINK
;20240130101353;20240130_10:57:04,660;1706651824660;0,271038;-0,218076;0,100598;-0,590118;;;;;BLINK
;20240130101353;20240130_10:57:04,678;1706651824678;1,01408;0,692005;0,826544;0,00139777;;;;;BLINK
;20240130101353;20240130_10:57:04,694;1706651824694;0,659244;0,569597;0,276496;-0,148904;;;;;BLINK_TWICE
;20240130101353;20240130_10:57:04,709;1706651824709;-0,421919;-0,702151;-0,487463;-0,14707;;;;;BLINK_TWICE
;20240130101353;20240130_10:57:04,726;1706651824726;-0,030689;-0,422976;-0,490208;-1,10296;;;;;BLINK_TWICE
;20240130101353;20240130_10:57:04,743;1706651824743;-0,0929491;1,02464;0,867113;0,671225;;;;;BLINK_TWICE
;20240130101353;20240130_10:57:04,760;1706651824760;0,272045;0,824454;0,276478;-0,203061;;;;;BLINK_TWICE
;20240130101353;20240130_10:57:04,779;1706651824779;-0,402302;0,701329;0,0045157;0,0569311;;;;;BLINK_TWICE
;20240130101353;20240130_10:57:04,795;1706651824795;-1,69095;-1,13653;-1,56295;-0,848443;;;;;BLINK_TWICE
;20240130101353;20240130_10:57:04,811;1706651824811;-0,318379;0,540843;-0,342751;-0,221403;;;;;BLINK_TWICE
;20240130101353;20240130_10:57:04,827;1706651824827;-0,200822;0,168634;-0,390577;-0,044767;;;;;BLINK_TWICE
;20240130101353;20240130_10:57:04,844;1706651824844;-1,40255;-0,532253;-0,12019;-1,25802;;;;;BLINK_TWICE
;20240130101353;20240130_10:57:04,859;1706651824859;-0,563406;-0,074941;-0,083471;-0,905385;;;;;BLINK_TWICE
;20240130101353;20240130_10:57:04,876;1706651824876;-0,917859;-0,750859;-0,008023;-0,007519;;;;;BLINK_TWICE
;20240130101353;20240130_10:57:04,895;1706651824895;0,414893;-0,674308;-0,0627495;-0,967189;;;;;BLINK_TWICE
;20240130101353;20240130_10:57:04,913;1706651824913;-1,18948;-0,971766;-0,263359;-0,963839;;;;;BLINK_TWICE
;20240130101353;20240130_10:57:04,930;1706651824930;0,0093226;-1,44884;-0,313873;-0,890059;;;;;BLINK_TWICE
;20240130101353;20240130_10:57:04,942;1706651824942;-0,792819;0,120112;-0,568545;0,200637;;;;;BLINK_TWICE
;20240130101353;20240130_10:57:04,959;1706651824959;0,623382;0,483429;-0,429672;0,825641;;;;;BLINK_TWICE
;20240130101353;20240130_10:57:04,976;1706651824976;0,678659;0,031771;-0,606647;0,329016;;;;;BLINK_TWICE
;20240130101353;20240130_10:57:04,994;1706651824994;-0,574115;-0,126163;-0,087275;-0,001894;;;;;BLINK_TWICE
;20240130101353;20240130_10:57:05,010;1706651825010;0,059305;0,158365;-0,386417;0,264832;;;;;BLINK_TWICE
;20240130101353;20240130_10:57:05,027;1706651825027;-0,0286533;0,576329;0,0659565;0,0562539;;;;;BLINK_TWICE
;20240130101353;20240130_10:57:05,044;1706651825044;-1,41255;-0,617002;-0,588145;-1,08357;;;;;BLINK_TWICE
;20240130101353;20240130_10:57:05,062;1706651825062;-0,485697;-0,602081;-0,820961;-0,621259;;;;;BLINK_TWICE
;20240130101353;20240130_10:57:05,077;1706651825077;-0,066777;0,021147;0,0971092;-0,179682;;;;;BLINK_TWICE
;20240130101353;20240130_10:57:05,099;1706651825099;-0,818327;-0,808182;-1,15562;-0,604425;;;;;BLINK_TWICE
;20240130101353;20240130_10:57:05,111;1706651825111;-0,470971;-0,756583;-1,34896;-0,523136;;;;;BLINK_TWICE
;20240130101353;20240130_10:57:05,130;1706651825130;-0,359596;0,195809;-0,331489;-0,205541;;;;;BLINK_TWICE
;20240130101353;20240130_10:57:05,144;1706651825144;-2,59109;-0,609313;-2,46371;-2,40072;;;;;BLINK_TWICE
;20240130101353;20240130_10:57:05,160;1706651825160;-6,37421;-7,16267;-6,18867;-6,66132;;;;;BLINK_TWICE
;20240130101353;20240130_10:57:05,177;1706651825177;-8,53055;-8,52291;-7,28048;-7,83083;;;;;BLINK_TWICE
;20240130101353;20240130_10:57:05,192;1706651825192;-7,44205;-7,03184;-6,36123;-5,94161;;;;;BLINK_TWICE
;20240130101353;20240130_10:57:05,211;1706651825211;-6,41925;-6,43352;-5,86197;-5,31607;;;;;BLINK_TWICE
;20240130101353;20240130_10:57:05,230;1706651825230;-1,38151;-2,14393;-1,19168;-1,56039;;;;;BLINK_TWICE
;20240130101353;20240130_10:57:05,246;1706651825246;-1,38151;-2,14393;0,026758;-0,307727;;;;;BLINK_TWICE
;20240130101353;20240130_10:57:05,261;1706651825261;1,60091;0,01022;1,23798;0,650467;;;;;BLINK_TWICE
;20240130101353;20240130_10:57:05,277;1706651825277;0,13208;2,49524;0,14595;1,79266;;;;;BLINK_TWICE
;20240130101353;20240130_10:57:05,292;1706651825292;1,79967;2,62565;1,16132;1,53627;;;;;BLINK_TWICE
;20240130101353;20240130_10:57:05,309;1706651825309;4,06844;3,94087;2,48117;3,08321;;;;;BLINK_TWICE
;20240130101353;20240130_10:57:05,327;1706651825327;4,08177;4,39295;2,78732;3,34225;;;;;BLINK_TWICE
;20240130101353;20240130_10:57:05,344;1706651825344;4,89083;4,96007;3,22538;0,03767;;;;;BLINK_TWICE
;20240130101353;20240130_10:57:05,360;1706651825360;3,51028;3,57168;3,38315;2,29939;;;;;BLINK_TWICE
;20240130101353;20240130_10:57:05,376;1706651825376;3,62047;3,87856;1,62022;2,19048;;;;;BLINK_TWICE
;20240130101353;20240130_10:57:05,393;1706651825393;3,14764;4,21993;0,25733;3,03068;;;;;BLINK_TWICE
;20240130101353;20240130_10:57:05,410;1706651825410;3,45604;3,99308;3,31298;0,29988;;;;;BLINK_TWICE
;20240130101353;20240130_10:57:05,427;1706651825427;2,64171;3,26265;2,11854;2,31372;;;;;BLINK_TWICE
;20240130101353;20240130_10:57:05,444;1706651825444;4,27556;3,38834;2,66131;2,01958;;;;;BLINK_TWICE
;20240130101353;20240130_10:57:05,460;1706651825460;4,60756;3,61663;3,02193;2,11009;;;;;BLINK_TWICE
;20240130101353;20240130_10:57:05,475;1706651825475;1,85342;2,12842;2,19626;1,78881;;;;;BLINK_TWICE
;20240130101353;20240130_10:57:05,492;1706651825492;0,379056;0,674803;0,980351;0,630048;;;;;BLINK_TWICE
;20240130101353;20240130_10:57:05,511;1706651825511;0,721359;-0,00122172;0,16221;0,319215;;;;;BLINK_TWICE
;20240130101353;20240130_10:57:05,527;1706651825527;0,096859;0,523831;0,01128;0,746946;;;;;BLINK_TWICE
;20240130101353;20240130_10:57:05,545;1706651825545;0,431094;-0,406119;0,921644;0,0890969;;;;;BLINK_TWICE
;20240130101353;20240130_10:57:05,559;1706651825559;-0,889474;-1,30619;-0,781813;-1,17291;;;;;BLINK_TWICE
;20240130101353;20240130_10:57:05,576;1706651825576;-0,043006;-1,24173;-0,239009;-0,812375;;;;;BLINK_TWICE
;20240130101353;20240130_10:57:05,592;1706651825592;-1,91189;-2,75802;-1,07812;-2,07618;;;;;BLINK_TWICE
;20240130101353;20240130_10:57:05,609;1706651825609;-5,67553;-6,44616;-2,67408;-5,42654;;;;;BLINK_TWICE
;20240130101353;20240130_10:57:05,630;1706651825630;-6,86419;-8,03858;-0,64226;-7,04595;;;;;BLINK_TWICE
;20240130101353;20240130_10:57:05,646;1706651825646;-6,88649;-7,57921;-5,99878;-6,26589;;;;;BLINK_TWICE
;20240130101353;20240130_10:57:05,662;1706651825662;-5,73444;-7,17029;-5,31358;-5,73125;;;;;BLINK_TWICE
;20240130101353;20240130_10:57:05,681;1706651825681;-4,80767;-6,87648;-4,76421;-5,67475;;;;;BLINK_TWICE
;20240130101353;20240130_10:57:05,696;1706651825696;-3,65569;-4,45908;-3,06819;-3,67749;;;;;BLINK_TWICE
;20240130101353;20240130_10:57:05,711;1706651825711;-0,27215;-3,27575;-2,50181;-2,82976;;;;;BLINK_TWICE
;20240130101353;20240130_10:57:05,727;1706651825727;1,12017;-0,676376;0,218925;0,005814;;;;;BLINK_TWICE
;20240130101353;20240130_10:57:05,752;1706651825752;3,11338;2,88263;2,41281;1,59756;;;;;BLINK_TWICE
;20240130101353;20240130_10:57:05,761;1706651825761;3,05974;3,43539;2,14945;3,05323;;;;;BLINK_TWICE
;20240130101353;20240130_10:57:05,776;1706651825776;4,98496;5,20776;3,69095;3,76409;;;;;BLINK_TWICE
;20240130101353;20240130_10:57:05,795;1706651825795;4,04474;4,38743;3,03054;3,11995;;;;;BLINK_TWICE
;20240130101353;20240130_10:57:05,811;1706651825811;4,07408;4,15931;0,39881;3,34198;;;;;BLINK_TWICE
;20240130101353;20240130_10:57:05,830;1706651825830;4,16046;4,59646;3,72565;0,29776;;;;;BLINK_TWICE
;20240130101353;20240130_10:57:05,845;1706651825845;4,01679;4,23953;2,88371;2,27881;;;;;BLINK_TWICE
;20240130101353;20240130_10:57:05,860;1706651825860;4,41126;4,78642;3,41797;0,27931;;;;;BLINK_TWICE
;20240130101353;20240130_10:57:05,876;1706651825876;0,38831;5,07957;0,34276;3,20817;;;;;BLINK_TWICE
;20240130101353;20240130_10:57:05,894;1706651825894;3,20554;3,37779;1,70265;2,43921;;;;;BLINK_TWICE
;20240130101353;20240130_10:57:05,909;1706651825909;3,09735;3,81034;1,27764;2,24269;;;;;BLINK_TWICE
;20240130101353;20240130_10:57:05,927;1706651825927;0,30997;3,24519;1,58362;0,508306;;;;;BLINK_TWICE
;20240130101353;20240130_10:57:05,945;1706651825945;1,77222;2,22162;1,25308;0,596017;;;;;BLINK_TWICE
;20240130101353;20240130_10:57:05,961;1706651825961;0,712066;1,40107;0,667192;0,003476;;;;;BLINK_TWICE
;20240130101353;20240130_10:57:05,980;1706651825980;0,076192;0,928534;1,03777;0,820136;;;;;BLINK_TWICE
;20240130101353;20240130_10:57:05,994;1706651825994;0,682166;0,546905;0,0943598;-0,164376;;;;;BLINK_TWICE
